NAFC_Y2K_HEADER
20731047  48 55.00 -052 24.00 2006-11-25 21:40 0349 S0344 019 V   BB-04        1
20731047 001035  8.00 A 09 #PTCSMOFL-----------            D 000 0002 0346 000 4
20731047 6 30 25 01 1018.9 000.3 000.2 04 04 27 06 06                          8
-- CHANNEL STATS -->
# span     scan =    349.000, 10413.000
# span     pres =      2.106,   346.730
# span     temp =     -0.545,     2.845
# span     cond =      2.746,     3.099
# span      sal =     32.478,    34.463
# span     sigt =     25.886,    27.496
# span      oxy =      5.869,     7.628
# span     flor =     -0.005,     0.259
# span      par =      0.628,     0.987
-- END --
-- HISTORY --> Mon Dec 11 12:40:20 2006
>SELECT_PROBE S
>READ # (DP) T C S O F L  scan pres temp cond sal oxy flor par
>/* STABILIZE_RESTRICT USING= pres 25.0 5 */
>RESTRICT USING= pres 0.0 4000.0
>RESTRICT USING= cond 2.0 5.0
>RESTRICT USING= temp -2.0 20.0
>MEDIANFILTER pres 21 1
>MEDIANFILTER temp 21 1
>MEDIANFILTER cond 21 1
>MEDIANFILTER flor 21 1
>MEDIANFILTER oxy 21 1
>MEDIANFILTER par 21 1
>SELECT_DN USING= pres
>/*
>SALINITY PRESSURE=pres CONDUCTIVITY=cond TEMPERATURE=temp RESULT=sal
>RESTRICT USING= sal 26.0 37.0
>*/
>MEDIANFILTER sal 21 1
>SIGMAT SALINITY=sal TEMPERATURE=temp RESULT=sigt
>MEDIANFILTER sigt 21 1
>HISTORY_ON
>WRITEFILE .p???? scan pres temp cond sal sigt oxy flor par
-- END --
 scan     pres     temp     cond      sal     sigt      oxy     flor      par 
-- DATA --
  349    2.106    2.839    2.946   32.479   25.887    7.623    0.231    0.987 
  532    2.629    2.839    2.946   32.479   25.887    7.619    0.223    0.938 
  551    3.428    2.839    2.946   32.479   25.887    7.618    0.222    0.926 
  566    4.020    2.839    2.946   32.479   25.887    7.618    0.222    0.930 
  590    4.746    2.839    2.946   32.479   25.887    7.618    0.221    0.883 
  619    5.399    2.838    2.946   32.479   25.887    7.615    0.220    0.813 
  635    5.841    2.839    2.946   32.478   25.886    7.616    0.219    0.831 
  647    6.256    2.839    2.946   32.479   25.887    7.616    0.219    0.824 
  653    6.512    2.838    2.946   32.478   25.886    7.617    0.218    0.828 
  663    6.941    2.837    2.946   32.478   25.886    7.617    0.216    0.868 
  676    7.536    2.839    2.946   32.479   25.887    7.618    0.221    0.851 
  680    7.740    2.839    2.946   32.479   25.887    7.618    0.221    0.833 
  686    7.998    2.839    2.946   32.479   25.887    7.618    0.221    0.833 
  692    8.282    2.839    2.946   32.479   25.887    7.621    0.221    0.833 
  698    8.518    2.839    2.946   32.479   25.887    7.621    0.221    0.833 
  715    9.149    2.839    2.946   32.479   25.887    7.621    0.221    0.833 
  728    9.545    2.839    2.946   32.479   25.887    7.622    0.221    0.847 
  739    9.816    2.839    2.946   32.479   25.887    7.622    0.224    0.848 
  777   10.509    2.839    2.946   32.479   25.887    7.622    0.224    0.848 
  788   10.770    2.839    2.946   32.479   25.887    7.622    0.225    0.848 
  799   11.104    2.839    2.946   32.479   25.887    7.622    0.225    0.847 
  812   11.644    2.839    2.946   32.479   25.887    7.622    0.225    0.841 
  821   12.051    2.839    2.946   32.479   25.887    7.623    0.225    0.835 
  826   12.312    2.839    2.946   32.479   25.887    7.623    0.225    0.833 
  832   12.609    2.839    2.946   32.479   25.887    7.623    0.225    0.831 
  837   12.912    2.839    2.946   32.479   25.887    7.624    0.226    0.828 
  844   13.294    2.839    2.946   32.479   25.887    7.626    0.227    0.818 
  849   13.578    2.839    2.946   32.479   25.887    7.626    0.228    0.818 
  854   13.837    2.839    2.946   32.479   25.887    7.626    0.230    0.818 
  859   14.075    2.839    2.946   32.479   25.887    7.626    0.230    0.818 
  863   14.284    2.839    2.946   32.479   25.887    7.626    0.230    0.818 
  867   14.467    2.839    2.946   32.479   25.887    7.626    0.230    0.818 
  876   14.879    2.839    2.946   32.479   25.887    7.626    0.230    0.814 
  882   15.065    2.839    2.947   32.479   25.887    7.626    0.230    0.803 
  892   15.429    2.839    2.947   32.479   25.887    7.626    0.230    0.792 
  901   15.683    2.839    2.947   32.479   25.887    7.626    0.231    0.779 
  915   16.062    2.839    2.947   32.479   25.887    7.626    0.232    0.766 
  931   16.438    2.839    2.947   32.479   25.887    7.626    0.234    0.766 
  945   16.727    2.839    2.947   32.479   25.887    7.626    0.234    0.764 
  955   16.938    2.840    2.947   32.479   25.887    7.626    0.234    0.763 
  966   17.187    2.840    2.947   32.479   25.887    7.625    0.234    0.762 
  979   17.528    2.840    2.947   32.479   25.887    7.625    0.234    0.760 
  988   17.792    2.840    2.947   32.479   25.887    7.625    0.235    0.759 
  998   18.133    2.840    2.947   32.479   25.887    7.625    0.235    0.755 
 1010   18.578    2.840    2.947   32.479   25.887    7.625    0.235    0.752 
 1015   18.784    2.840    2.947   32.479   25.887    7.625    0.235    0.750 
 1018   18.894    2.840    2.947   32.479   25.887    7.625    0.235    0.747 
 1022   19.075    2.840    2.947   32.479   25.887    7.625    0.235    0.747 
 1029   19.314    2.840    2.947   32.479   25.887    7.625    0.235    0.747 
 1039   19.693    2.840    2.947   32.479   25.887    7.624    0.235    0.747 
 1045   19.934    2.840    2.947   32.479   25.887    7.624    0.235    0.747 
 1049   20.042    2.840    2.947   32.479   25.887    7.624    0.235    0.747 
 1053   20.178    2.840    2.947   32.479   25.887    7.624    0.236    0.747 
 1058   20.308    2.841    2.947   32.479   25.886    7.624    0.236    0.747 
 1064   20.489    2.841    2.947   32.479   25.886    7.624    0.236    0.747 
 1070   20.642    2.841    2.947   32.479   25.886    7.624    0.235    0.747 
 1077   20.816    2.841    2.947   32.479   25.886    7.624    0.235    0.747 
 1088   21.087    2.841    2.947   32.479   25.886    7.623    0.235    0.747 
 1098   21.350    2.841    2.947   32.479   25.886    7.623    0.235    0.747 
 1102   21.478    2.841    2.947   32.479   25.886    7.623    0.235    0.747 
 1109   21.687    2.841    2.947   32.479   25.886    7.623    0.235    0.747 
 1114   21.883    2.841    2.947   32.479   25.886    7.623    0.236    0.747 
 1118   22.018    2.841    2.947   32.479   25.886    7.623    0.236    0.747 
 1124   22.297    2.841    2.947   32.479   25.886    7.623    0.236    0.747 
 1133   22.669    2.841    2.947   32.479   25.886    7.623    0.236    0.747 
 1145   23.242    2.841    2.947   32.479   25.886    7.623    0.237    0.747 
 1155   23.744    2.841    2.947   32.479   25.886    7.623    0.237    0.747 
 1159   23.970    2.841    2.947   32.479   25.886    7.623    0.237    0.747 
 1164   24.224    2.841    2.947   32.479   25.886    7.623    0.237    0.747 
 1173   24.623    2.841    2.947   32.479   25.886    7.623    0.238    0.747 
 1178   24.877    2.841    2.947   32.479   25.886    7.623    0.238    0.747 
 1185   25.143    2.841    2.947   32.479   25.886    7.623    0.241    0.747 
 1193   25.460    2.841    2.947   32.479   25.886    7.623    0.242    0.747 
 1201   25.771    2.841    2.947   32.479   25.886    7.623    0.242    0.745 
 1204   25.869    2.841    2.947   32.479   25.886    7.623    0.242    0.743 
 1211   26.113    2.841    2.947   32.479   25.886    7.623    0.242    0.740 
 1216   26.291    2.841    2.947   32.479   25.886    7.623    0.242    0.736 
 1228   26.693    2.841    2.947   32.479   25.886    7.624    0.242    0.735 
 1247   27.248    2.841    2.947   32.479   25.886    7.625    0.244    0.725 
 1252   27.394    2.841    2.947   32.479   25.886    7.626    0.247    0.722 
 1258   27.545    2.841    2.947   32.479   25.886    7.626    0.249    0.721 
 1262   27.638    2.841    2.947   32.479   25.886    7.626    0.249    0.721 
 1266   27.741    2.841    2.947   32.479   25.886    7.626    0.249    0.721 
 1271   27.854    2.841    2.947   32.479   25.886    7.626    0.249    0.721 
 1274   27.934    2.841    2.947   32.479   25.886    7.626    0.249    0.721 
 1298   28.554    2.841    2.947   32.479   25.886    7.626    0.249    0.721 
 1311   28.914    2.841    2.947   32.479   25.886    7.626    0.249    0.720 
 1315   29.064    2.841    2.947   32.479   25.886    7.625    0.249    0.720 
 1318   29.162    2.841    2.947   32.479   25.886    7.625    0.249    0.719 
 1323   29.333    2.841    2.947   32.479   25.886    7.625    0.249    0.719 
 1333   29.715    2.841    2.947   32.479   25.886    7.625    0.250    0.719 
 1343   30.122    2.841    2.947   32.479   25.886    7.624    0.250    0.719 
 1347   30.278    2.841    2.947   32.479   25.886    7.624    0.251    0.719 
 1354   30.549    2.842    2.947   32.479   25.886    7.623    0.251    0.719 
 1358   30.718    2.842    2.947   32.479   25.886    7.623    0.252    0.719 
 1361   30.831    2.841    2.947   32.479   25.886    7.623    0.252    0.719 
 1364   30.941    2.841    2.947   32.479   25.886    7.623    0.252    0.719 
 1370   31.140    2.841    2.947   32.479   25.886    7.623    0.253    0.718 
 1378   31.456    2.841    2.947   32.479   25.886    7.622    0.253    0.718 
 1387   31.768    2.841    2.947   32.479   25.886    7.622    0.253    0.718 
 1392   31.946    2.841    2.947   32.479   25.886    7.622    0.253    0.718 
 1398   32.097    2.841    2.947   32.479   25.886    7.622    0.253    0.718 
 1405   32.349    2.841    2.947   32.479   25.886    7.622    0.253    0.718 
 1410   32.477    2.841    2.947   32.479   25.886    7.622    0.253    0.718 
 1414   32.618    2.841    2.947   32.479   25.886    7.622    0.253    0.718 
 1421   32.839    2.841    2.947   32.479   25.886    7.622    0.253    0.718 
 1429   33.110    2.841    2.947   32.479   25.886    7.622    0.253    0.718 
 1441   33.520    2.841    2.947   32.479   25.886    7.622    0.253    0.718 
 1451   33.917    2.841    2.947   32.479   25.886    7.622    0.250    0.718 
 1459   34.246    2.841    2.947   32.479   25.886    7.622    0.248    0.725 
 1465   34.580    2.841    2.947   32.479   25.886    7.622    0.248    0.736 
 1469   34.774    2.841    2.947   32.479   25.886    7.623    0.248    0.743 
 1473   34.972    2.841    2.947   32.479   25.886    7.624    0.248    0.751 
 1477   35.251    2.841    2.947   32.479   25.886    7.627    0.248    0.753 
 1481   35.510    2.841    2.947   32.479   25.886    7.628    0.248    0.753 
 1485   35.792    2.841    2.947   32.479   25.886    7.628    0.248    0.753 
 1488   35.968    2.841    2.947   32.479   25.886    7.628    0.248    0.753 
 1491   36.209    2.841    2.947   32.479   25.886    7.628    0.248    0.753 
 1495   36.501    2.841    2.947   32.479   25.886    7.628    0.248    0.753 
 1499   36.807    2.841    2.947   32.479   25.886    7.628    0.248    0.753 
 1502   37.066    2.841    2.948   32.479   25.886    7.628    0.248    0.753 
 1505   37.262    2.840    2.948   32.479   25.886    7.628    0.248    0.753 
 1508   37.496    2.841    2.948   32.479   25.886    7.628    0.248    0.753 
 1511   37.727    2.841    2.948   32.479   25.886    7.628    0.248    0.753 
 1514   37.923    2.841    2.948   32.479   25.886    7.628    0.249    0.749 
 1517   38.147    2.841    2.948   32.479   25.886    7.628    0.249    0.747 
 1520   38.323    2.842    2.948   32.479   25.887    7.628    0.250    0.743 
 1525   38.620    2.842    2.948   32.480   25.887    7.627    0.250    0.738 
 1541   39.215    2.843    2.948   32.480   25.887    7.627    0.250    0.729 
 1640   39.470    2.843    2.948   32.480   25.887    7.617    0.250    0.727 
 1652   39.998    2.844    2.948   32.481   25.887    7.617    0.251    0.727 
 1655   40.154    2.844    2.948   32.481   25.888    7.617    0.252    0.726 
 1658   40.332    2.844    2.948   32.481   25.888    7.616    0.252    0.725 
 1661   40.511    2.844    2.948   32.481   25.888    7.616    0.253    0.725 
 1665   40.780    2.844    2.948   32.481   25.888    7.616    0.255    0.724 
 1673   41.285    2.844    2.948   32.481   25.888    7.616    0.255    0.723 
 1679   41.730    2.843    2.948   32.481   25.888    7.616    0.257    0.719 
 1683   41.981    2.843    2.948   32.481   25.888    7.616    0.257    0.719 
 1686   42.192    2.843    2.948   32.480   25.888    7.616    0.257    0.718 
 1689   42.418    2.843    2.948   32.481   25.888    7.616    0.257    0.718 
 1692   42.632    2.844    2.948   32.481   25.888    7.616    0.257    0.718 
 1695   42.846    2.844    2.948   32.481   25.888    7.616    0.257    0.718 
 1701   43.273    2.844    2.948   32.481   25.888    7.616    0.257    0.718 
 1708   43.703    2.844    2.948   32.481   25.888    7.616    0.257    0.718 
 1715   44.105    2.844    2.948   32.481   25.888    7.617    0.257    0.718 
 1719   44.316    2.844    2.948   32.481   25.888    7.617    0.257    0.712 
 1726   44.632    2.844    2.948   32.481   25.888    7.618    0.257    0.711 
 1730   44.831    2.844    2.948   32.481   25.888    7.618    0.258    0.709 
 1738   45.135    2.843    2.948   32.481   25.888    7.618    0.258    0.701 
 1758   45.713    2.843    2.948   32.481   25.888    7.618    0.259    0.700 
 1788   46.373    2.843    2.948   32.481   25.888    7.618    0.259    0.700 
 1838   47.740    2.843    2.948   32.481   25.888    7.618    0.259    0.698 
 1857   48.466    2.843    2.948   32.481   25.888    7.618    0.259    0.696 
 1869   49.007    2.843    2.948   32.481   25.888    7.618    0.259    0.696 
 1878   49.416    2.843    2.949   32.481   25.888    7.618    0.258    0.694 
 1890   49.974    2.843    2.949   32.481   25.888    7.617    0.258    0.692 
 1898   50.316    2.843    2.949   32.481   25.888    7.616    0.257    0.692 
 1905   50.587    2.843    2.949   32.481   25.888    7.616    0.257    0.692 
 1920   51.153    2.843    2.949   32.481   25.888    7.616    0.257    0.692 
 1940   51.779    2.843    2.949   32.481   25.888    7.615    0.255    0.692 
 1961   52.271    2.843    2.949   32.482   25.889    7.614    0.254    0.693 
 1984   52.748    2.843    2.949   32.482   25.889    7.614    0.254    0.694 
 1997   52.977    2.843    2.949   32.482   25.889    7.614    0.254    0.694 
 2006   53.188    2.843    2.949   32.482   25.889    7.611    0.254    0.694 
 2028   53.871    2.843    2.949   32.483   25.889    7.611    0.254    0.694 
 2046   54.598    2.844    2.949   32.483   25.889    7.611    0.254    0.694 
 2054   54.965    2.844    2.949   32.483   25.890    7.611    0.254    0.694 
 2059   55.244    2.844    2.949   32.484   25.890    7.611    0.254    0.694 
 2062   55.359    2.845    2.949   32.484   25.890    7.611    0.253    0.696 
 2069   55.769    2.845    2.949   32.485   25.891    7.611    0.253    0.696 
 2075   56.098    2.845    2.949   32.485   25.891    7.611    0.252    0.700 
 2080   56.423    2.845    2.949   32.485   25.891    7.611    0.252    0.701 
 2087   56.780    2.845    2.949   32.485   25.891    7.611    0.251    0.701 
 2091   57.031    2.845    2.949   32.486   25.892    7.611    0.251    0.701 
 2094   57.242    2.845    2.949   32.486   25.892    7.611    0.251    0.701 
 2097   57.428    2.845    2.949   32.487   25.893    7.611    0.251    0.701 
 2100   57.609    2.845    2.949   32.487   25.893    7.611    0.252    0.701 
 2103   57.800    2.845    2.949   32.487   25.893    7.612    0.252    0.701 
 2106   58.006    2.845    2.950   32.488   25.893    7.612    0.252    0.701 
 2109   58.205    2.845    2.950   32.488   25.893    7.612    0.252    0.701 
 2116   58.660    2.844    2.950   32.489   25.894    7.612    0.252    0.701 
 2121   58.987    2.844    2.950   32.489   25.894    7.612    0.251    0.701 
 2127   59.379    2.843    2.950   32.490   25.895    7.612    0.251    0.701 
 2131   59.608    2.842    2.950   32.491   25.896    7.612    0.251    0.701 
 2134   59.794    2.842    2.950   32.491   25.896    7.612    0.251    0.700 
 2140   60.128    2.840    2.950   32.492   25.897    7.612    0.250    0.700 
 2144   60.329    2.840    2.950   32.492   25.897    7.611    0.249    0.696 
 2162   60.930    2.838    2.950   32.494   25.899    7.611    0.249    0.694 
 2236   61.263    2.838    2.950   32.494   25.899    7.585    0.244    0.694 
 2260   61.428    2.836    2.950   32.496   25.901    7.567    0.240    0.694 
 2267   61.635    2.836    2.950   32.496   25.901    7.560    0.237    0.694 
 2275   61.987    2.835    2.950   32.498   25.902    7.552    0.237    0.694 
 2283   62.341    2.834    2.950   32.500   25.904    7.543    0.235    0.694 
 2287   62.588    2.834    2.950   32.500   25.904    7.539    0.233    0.694 
 2291   62.791    2.833    2.950   32.501   25.905    7.533    0.231    0.694 
 2294   62.957    2.833    2.950   32.501   25.905    7.531    0.231    0.693 
 2298   63.204    2.832    2.950   32.502   25.906    7.526    0.230    0.693 
 2302   63.460    2.832    2.950   32.503   25.906    7.522    0.230    0.692 
 2305   63.666    2.821    2.950   32.521   25.922    7.520    0.230    0.692 
 2308   63.872    2.801    2.950   32.549   25.946    7.519    0.229    0.692 
 2312   64.114    2.786    2.950   32.567   25.961    7.515    0.228    0.692 
 2317   64.463    2.774    2.950   32.580   25.973    7.510    0.228    0.692 
 2321   64.768    2.769    2.950   32.584   25.976    7.502    0.227    0.692 
 2330   65.379    2.743    2.950   32.615   26.003    7.490    0.226    0.692 
 2334   65.680    2.723    2.950   32.627   26.015    7.487    0.224    0.692 
 2342   66.108    2.688    2.950   32.646   26.033    7.478    0.219    0.692 
 2346   66.292    2.680    2.950   32.651   26.037    7.472    0.213    0.692 
 2350   66.536    2.669    2.949   32.657   26.043    7.462    0.205    0.691 
 2356   66.782    2.649    2.949   32.671   26.056    7.453    0.192    0.688 
 2374   67.451    2.595    2.947   32.704   26.086    7.414    0.161    0.686 
 2399   68.120    2.543    2.944   32.721   26.104    7.398    0.135    0.685 
 2417   68.663    2.458    2.939   32.742   26.128    7.388    0.125    0.684 
 2423   68.846    2.418    2.936   32.750   26.137    7.380    0.124    0.683 
 2435   69.312    2.326    2.930   32.770   26.161    7.376    0.120    0.682 
 2441   69.518    2.290    2.927   32.777   26.169    7.370    0.120    0.681 
 2455   70.038    2.133    2.915   32.787   26.189    7.366    0.110    0.681 
 2469   70.541    1.992    2.905   32.810   26.218    7.365    0.094    0.681 
 2487   71.027    1.951    2.903   32.811   26.222    7.363    0.076    0.681 
 2499   71.288    1.934    2.901   32.816   26.227    7.362    0.066    0.681 
 2527   71.625    1.933    2.901   32.817   26.228    7.328    0.049    0.681 
 2547   71.904    1.923    2.900   32.818   26.229    7.289    0.044    0.681 
 2569   72.442    1.831    2.893   32.819   26.237    7.262    0.040    0.681 
 2589   73.151    1.697    2.883   32.833   26.258    7.246    0.039    0.681 
 2599   73.578    1.620    2.878   32.847   26.274    7.238    0.039    0.681 
 2605   73.860    1.593    2.876   32.849   26.278    7.236    0.038    0.681 
 2612   74.174    1.578    2.875   32.851   26.280    7.236    0.037    0.681 
 2621   74.624    1.572    2.874   32.852   26.281    7.236    0.037    0.681 
 2631   75.144    1.508    2.869   32.852   26.286    7.236    0.037    0.681 
 2635   75.313    1.468    2.865   32.853   26.289    7.236    0.036    0.681 
 2640   75.610    1.329    2.855   32.861   26.305    7.236    0.036    0.681 
 2644   75.816    1.235    2.849   32.886   26.331    7.236    0.035    0.681 
 2651   76.170    1.163    2.845   32.910   26.355    7.236    0.034    0.681 
 2657   76.505    1.135    2.843   32.913   26.359    7.236    0.034    0.681 
 2673   77.325    1.042    2.836   32.926   26.375    7.236    0.034    0.681 
 2687   78.109    0.907    2.827   32.948   26.401    7.236    0.033    0.681 
 2693   78.444    0.860    2.823   32.954   26.409    7.236    0.032    0.681 
 2705   79.022    0.772    2.817   32.970   26.427    7.236    0.029    0.681 
 2713   79.429    0.762    2.817   32.972   26.429    7.236    0.029    0.681 
 2730   80.118    0.715    2.814   32.981   26.439    7.236    0.029    0.681 
 2741   80.513    0.644    2.809   32.998   26.457    7.236    0.029    0.681 
 2757   80.978    0.555    2.804   33.020   26.479    7.236    0.026    0.681 
 2779   81.516    0.507    2.800   33.020   26.482    7.236    0.024    0.681 
 2802   82.152    0.495    2.799   33.021   26.483    7.236    0.024    0.681 
 2815   82.597    0.484    2.798   33.022   26.485    7.236    0.023    0.681 
 2824   82.919    0.471    2.797   33.022   26.486    7.236    0.023    0.681 
 2835   83.306    0.452    2.795   33.022   26.487    7.236    0.021    0.681 
 2890   83.884    0.437    2.794   33.022   26.487    7.223    0.018    0.681 
 2961   84.313    0.429    2.793   33.023   26.489    7.175    0.018    0.681 
 2970   84.911    0.405    2.791   33.025   26.491    7.175    0.016    0.681 
 2973   85.130    0.381    2.790   33.027   26.494    7.175    0.016    0.684 
 2977   85.487    0.363    2.789   33.035   26.502    7.175    0.016    0.685 
 2984   86.156    0.352    2.789   33.043   26.509    7.175    0.016    0.685 
 2988   86.476    0.349    2.789   33.045   26.511    7.175    0.016    0.686 
 2991   86.753    0.338    2.788   33.049   26.514    7.175    0.016    0.686 
 2996   87.293    0.271    2.784   33.061   26.528    7.175    0.016    0.687 
 2999   87.608    0.252    2.783   33.068   26.534    7.175    0.016    0.687 
 3002   87.912    0.239    2.782   33.073   26.539    7.175    0.016    0.687 
 3005   88.227    0.227    2.781   33.081   26.546    7.175    0.016    0.687 
 3008   88.561    0.210    2.781   33.091   26.555    7.176    0.015    0.687 
 3011   88.845    0.189    2.780   33.108   26.570    7.180    0.015    0.687 
 3014   89.177    0.162    2.779   33.123   26.583    7.184    0.015    0.687 
 3017   89.492    0.147    2.779   33.131   26.590    7.187    0.015    0.687 
 3020   89.796    0.141    2.779   33.133   26.592    7.187    0.015    0.686 
 3023   90.128    0.139    2.779   33.135   26.594    7.187    0.014    0.685 
 3026   90.425    0.139    2.778   33.135   26.594    7.187    0.014    0.685 
 3029   90.760    0.139    2.778   33.137   26.596    7.187    0.014    0.685 
 3032   91.041    0.134    2.778   33.142   26.600    7.187    0.014    0.685 
 3036   91.419    0.126    2.778   33.147   26.604    7.187    0.014    0.685 
 3044   92.068    0.117    2.778   33.151   26.608    7.187    0.014    0.681 
 3050   92.513    0.108    2.778   33.156   26.612    7.187    0.015    0.680 
 3056   92.868    0.099    2.777   33.160   26.616    7.187    0.015    0.677 
 3060   93.109    0.089    2.777   33.165   26.621    7.187    0.016    0.676 
 3137   94.082    0.068    2.776   33.177   26.631    7.180    0.016    0.674 
 3258   94.656    0.050    2.775   33.177   26.632    7.150    0.016    0.674 
 3263   94.973    0.047    2.774   33.177   26.632    7.148    0.016    0.674 
 3267   95.217    0.042    2.774   33.178   26.633    7.147    0.015    0.672 
 3273   95.645    0.038    2.774   33.179   26.634    7.147    0.014    0.672 
 3276   95.884    0.037    2.774   33.180   26.635    7.146    0.014    0.672 
 3279   96.091    0.037    2.774   33.183   26.638    7.146    0.014    0.672 
 3284   96.503    0.034    2.774   33.187   26.641    7.144    0.014    0.672 
 3292   97.188    0.024    2.774   33.198   26.650    7.144    0.014    0.672 
 3297   97.530    0.018    2.774   33.204   26.656    7.144    0.014    0.672 
 3301   97.882    0.014    2.774   33.209   26.660    7.144    0.014    0.671 
 3304   98.159    0.011    2.774   33.211   26.661    7.144    0.014    0.671 
 3307   98.388    0.009    2.774   33.212   26.662    7.144    0.014    0.671 
 3310   98.629    0.009    2.774   33.213   26.663    7.144    0.014    0.671 
 3314   98.977    0.007    2.774   33.216   26.666    7.144    0.014    0.671 
 3321   99.465    0.005    2.774   33.218   26.667    7.144    0.012    0.671 
 3325   99.805    0.003    2.774   33.220   26.669    7.144    0.012    0.671 
 3328  100.028    0.002    2.774   33.220   26.669    7.144    0.011    0.671 
 3332  100.265    0.002    2.774   33.220   26.669    7.144    0.011    0.671 
 3336  100.590    0.001    2.774   33.221   26.670    7.144    0.011    0.671 
 3347  101.324   -0.012    2.773   33.226   26.675    7.143    0.011    0.671 
 3360  102.132   -0.032    2.772   33.228   26.677    7.143    0.010    0.671 
 3365  102.379   -0.040    2.772   33.230   26.679    7.144    0.010    0.671 
 3369  102.560   -0.041    2.771   33.230   26.679    7.144    0.010    0.671 
 3373  102.802   -0.041    2.771   33.230   26.679    7.146    0.009    0.670 
 3376  102.940   -0.042    2.771   33.231   26.680    7.147    0.009    0.670 
 3382  103.244   -0.045    2.771   33.231   26.680    7.147    0.008    0.667 
 3403  103.992   -0.058    2.770   33.231   26.681    7.147    0.008    0.666 
 3415  104.259   -0.069    2.769   33.233   26.683    7.148    0.008    0.666 
 3458  104.513   -0.081    2.769   33.235   26.685    7.148    0.007    0.665 
 3506  104.668   -0.097    2.768   33.238   26.688    7.148    0.007    0.664 
 3536  105.564   -0.201    2.760   33.246   26.700    7.148    0.007    0.663 
 3546  106.022   -0.238    2.758   33.254   26.708    7.148    0.007    0.662 
 3552  106.256   -0.244    2.758   33.258   26.711    7.148    0.007    0.662 
 3557  106.477   -0.246    2.758   33.258   26.712    7.147    0.007    0.662 
 3561  106.646   -0.246    2.758   33.259   26.712    7.147    0.006    0.662 
 3568  106.955   -0.246    2.758   33.264   26.716    7.144    0.006    0.662 
 3574  107.197   -0.246    2.758   33.266   26.718    7.141    0.006    0.662 
 3582  107.567   -0.246    2.758   33.268   26.720    7.141    0.006    0.662 
 3598  108.269   -0.246    2.758   33.287   26.735    7.139    0.006    0.662 
 3603  108.510   -0.254    2.758   33.293   26.740    7.139    0.006    0.662 
 3607  108.686   -0.259    2.758   33.295   26.742    7.139    0.006    0.662 
 3613  108.940   -0.261    2.757   33.304   26.749    7.133    0.006    0.662 
 3616  109.069   -0.273    2.757   33.306   26.751    7.132    0.006    0.662 
 3624  109.454   -0.274    2.756   33.307   26.752    7.132    0.006    0.662 
 3631  109.751   -0.285    2.756   33.308   26.754    7.132    0.006    0.662 
 3636  109.985   -0.289    2.756   33.311   26.756    7.132    0.006    0.662 
 3640  110.208   -0.290    2.756   33.313   26.758    7.130    0.006    0.662 
 3643  110.339   -0.296    2.756   33.313   26.758    7.129    0.006    0.662 
 3651  110.712   -0.296    2.756   33.314   26.759    7.128    0.006    0.662 
 3664  111.273   -0.296    2.756   33.314   26.759    7.125    0.005    0.662 
 3670  111.514   -0.296    2.758   33.315   26.759    7.124    0.005    0.662 
 3673  111.627   -0.285    2.758   33.315   26.760    7.123    0.004    0.661 
 3681  111.859   -0.285    2.758   33.316   26.760    7.123    0.003    0.660 
 3689  112.068   -0.285    2.758   33.318   26.762    7.121    0.003    0.660 
 3698  112.234   -0.285    2.758   33.318   26.762    7.118    0.003    0.660 
 3708  112.392   -0.285    2.758   33.319   26.763    7.118    0.003    0.660 
 3720  112.598   -0.285    2.758   33.320   26.763    7.118    0.004    0.660 
 3733  112.802   -0.285    2.758   33.320   26.763    7.118    0.004    0.660 
 3747  113.136   -0.285    2.758   33.321   26.764    7.115    0.004    0.660 
 3755  113.360   -0.285    2.758   33.333   26.774    7.115    0.004    0.660 
 3760  113.539   -0.285    2.758   33.335   26.774    7.106    0.004    0.660 
 3770  113.931   -0.261    2.762   33.335   26.775    7.093    0.004    0.660 
 3774  114.100   -0.260    2.763   33.336   26.775    7.089    0.004    0.660 
 3777  114.238   -0.260    2.763   33.336   26.776    7.087    0.004    0.660 
 3780  114.387   -0.260    2.763   33.337   26.776    7.086    0.004    0.660 
 3784  114.573   -0.260    2.763   33.337   26.776    7.086    0.004    0.660 
 3792  115.013   -0.260    2.763   33.338   26.777    7.086    0.004    0.661 
 3796  115.235   -0.260    2.763   33.338   26.777    7.086    0.004    0.661 
 3802  115.579   -0.260    2.763   33.340   26.778    7.086    0.004    0.661 
 3806  115.851   -0.260    2.763   33.340   26.778    7.086    0.004    0.661 
 3813  116.299   -0.260    2.763   33.341   26.779    7.086    0.004    0.661 
 3821  116.795   -0.260    2.763   33.346   26.783    7.086    0.004    0.662 
 3824  116.989   -0.260    2.763   33.348   26.785    7.086    0.004    0.662 
 3827  117.185   -0.290    2.760   33.350   26.788    7.086    0.004    0.662 
 3830  117.401   -0.311    2.759   33.355   26.793    7.086    0.004    0.662 
 3833  117.577   -0.320    2.759   33.362   26.799    7.087    0.004    0.662 
 3838  117.932   -0.342    2.758   33.368   26.805    7.087    0.005    0.662 
 3841  118.129   -0.346    2.758   33.371   26.807    7.087    0.005    0.662 
 3844  118.307   -0.348    2.758   33.373   26.809    7.087    0.004    0.661 
 3847  118.501   -0.349    2.758   33.373   26.809    7.087    0.004    0.661 
 3850  118.680   -0.349    2.758   33.373   26.809    7.087    0.004    0.661 
 3860  119.241   -0.350    2.758   33.374   26.810    7.087    0.004    0.661 
 3868  119.649   -0.350    2.758   33.374   26.810    7.087    0.004    0.660 
 3872  119.764   -0.350    2.758   33.374   26.810    7.087    0.004    0.660 
 3881  120.089   -0.350    2.758   33.374   26.810    7.087    0.003    0.660 
 3887  120.237   -0.351    2.758   33.375   26.811    7.087    0.003    0.659 
 3892  120.348   -0.351    2.758   33.375   26.811    7.087    0.003    0.658 
 3906  120.481   -0.351    2.758   33.375   26.811    7.084    0.003    0.658 
 4005  120.721   -0.351    2.758   33.375   26.811    7.059    0.002    0.658 
 4021  121.048   -0.351    2.758   33.375   26.811    7.051    0.002    0.658 
 4030  121.310   -0.351    2.758   33.375   26.811    7.047    0.002    0.658 
 4036  121.579   -0.352    2.758   33.377   26.812    7.045    0.002    0.658 
 4039  121.692   -0.352    2.758   33.378   26.813    7.044    0.002    0.658 
 4042  121.838   -0.352    2.758   33.380   26.815    7.044    0.002    0.658 
 4045  122.002   -0.353    2.758   33.381   26.816    7.040    0.002    0.658 
 4048  122.158   -0.353    2.758   33.382   26.817    7.040    0.001    0.658 
 4052  122.354   -0.354    2.758   33.383   26.817    7.039    0.001    0.658 
 4058  122.767   -0.354    2.758   33.385   26.819    7.036    0.001    0.658 
 4061  122.961   -0.355    2.758   33.386   26.820    7.036    0.001    0.658 
 4066  123.305   -0.355    2.758   33.387   26.821    7.035    0.001    0.658 
 4072  123.741   -0.355    2.758   33.387   26.821    7.035    0.001    0.659 
 4076  124.081   -0.356    2.758   33.388   26.821    7.035    0.001    0.659 
 4079  124.363   -0.356    2.758   33.388   26.821    7.035    0.001    0.659 
 4082  124.584   -0.359    2.758   33.389   26.822    7.034    0.001    0.659 
 4085  124.826   -0.366    2.758   33.390   26.823    7.034    0.000    0.659 
 4088  125.087   -0.372    2.757   33.391   26.825    7.034    0.000    0.659 
 4092  125.417   -0.383    2.756   33.391   26.825    7.033    0.000    0.659 
 4098  125.948   -0.426    2.753   33.395   26.830    7.033    0.000    0.659 
 4102  126.238   -0.428    2.753   33.399   26.833    7.033    0.000    0.659 
 4106  126.618   -0.430    2.753   33.400   26.834    7.033    0.000    0.659 
 4109  126.849   -0.432    2.753   33.400   26.834    7.033   -0.001    0.659 
 4112  127.083   -0.437    2.753   33.401   26.835    7.033   -0.001    0.658 
 4117  127.476   -0.453    2.752   33.402   26.837    7.033   -0.001    0.658 
 4120  127.720   -0.457    2.752   33.402   26.837    7.033   -0.001    0.658 
 4124  127.969   -0.458    2.751   33.403   26.838    7.033   -0.001    0.658 
 4131  128.440   -0.461    2.751   33.407   26.841    7.033   -0.001    0.658 
 4138  128.865   -0.469    2.751   33.408   26.843    7.033   -0.001    0.658 
 4142  129.102   -0.471    2.750   33.409   26.843    7.033   -0.001    0.657 
 4145  129.251   -0.477    2.750   33.409   26.844    7.033   -0.001    0.656 
 4150  129.495   -0.487    2.750   33.410   26.845    7.033   -0.001    0.656 
 4155  129.736   -0.490    2.749   33.411   26.846    7.032   -0.002    0.656 
 4167  130.154   -0.495    2.749   33.413   26.848    7.031   -0.002    0.656 
 4175  130.411   -0.497    2.749   33.413   26.848    7.030   -0.002    0.654 
 4185  130.665   -0.498    2.749   33.414   26.849    7.030   -0.002    0.654 
 4256  131.359   -0.505    2.748   33.415   26.850    7.014   -0.002    0.654 
 4332  131.883   -0.521    2.747   33.415   26.850    6.999   -0.002    0.654 
 4336  132.021   -0.524    2.747   33.415   26.850    6.999   -0.002    0.654 
 4340  132.225   -0.533    2.746   33.416   26.852    6.999   -0.002    0.654 
 4345  132.464   -0.536    2.746   33.418   26.853    6.998   -0.001    0.653 
 4353  132.872   -0.536    2.746   33.419   26.854    6.998   -0.001    0.653 
 4356  133.028   -0.536    2.746   33.419   26.854    6.997    0.000    0.653 
 4359  133.210   -0.537    2.746   33.419   26.854    6.996    0.000    0.653 
 4363  133.471   -0.538    2.746   33.419   26.854    6.996    0.000    0.653 
 4367  133.701   -0.538    2.746   33.419   26.854    6.996    0.000    0.653 
 4371  133.975   -0.539    2.746   33.419   26.854    6.996   -0.001    0.652 
 4376  134.259   -0.545    2.746   33.419   26.855    6.995   -0.002    0.653 
 4380  134.554   -0.545    2.746   33.420   26.855    6.995   -0.002    0.653 
 4390  135.206   -0.545    2.746   33.423   26.858    6.995   -0.002    0.652 
 4394  135.493   -0.545    2.746   33.424   26.859    6.995   -0.002    0.652 
 4399  135.823   -0.545    2.746   33.425   26.859    6.994   -0.002    0.652 
 4405  136.236   -0.545    2.746   33.425   26.859    6.992   -0.002    0.652 
 4412  136.651   -0.545    2.746   33.427   26.861    6.990   -0.001    0.652 
 4420  137.115   -0.545    2.746   33.433   26.866    6.987   -0.001    0.652 
 4429  137.565   -0.545    2.746   33.439   26.871    6.982   -0.001    0.652 
 4436  137.938   -0.545    2.746   33.441   26.872    6.980   -0.002    0.652 
 4441  138.160   -0.545    2.748   33.448   26.878    6.976   -0.002    0.652 
 4447  138.462   -0.526    2.751   33.453   26.881    6.968   -0.002    0.651 
 4459  138.986   -0.521    2.751   33.456   26.884    6.966   -0.002    0.650 
 4482  139.975   -0.521    2.751   33.462   26.888    6.961   -0.002    0.650 
 4508  140.927   -0.516    2.751   33.466   26.891    6.960   -0.002    0.650 
 4527  141.415   -0.516    2.752   33.470   26.895    6.960   -0.002    0.649 
 4579  142.331   -0.509    2.753   33.475   26.898    6.958   -0.002    0.649 
 4634  143.318   -0.503    2.753   33.479   26.901    6.955   -0.002    0.648 
 4664  144.163   -0.497    2.755   33.487   26.908    6.952   -0.002    0.648 
 4675  144.516   -0.490    2.756   33.489   26.909    6.952   -0.002    0.648 
 4687  144.999   -0.483    2.757   33.490   26.909    6.950   -0.002    0.648 
 4699  145.430   -0.482    2.757   33.490   26.909    6.949   -0.002    0.648 
 4708  145.764   -0.480    2.757   33.491   26.910    6.949   -0.002    0.648 
 4733  146.567   -0.479    2.757   33.496   26.914    6.949   -0.002    0.648 
 4777  147.987   -0.453    2.760   33.505   26.920    6.943   -0.002    0.648 
 4785  148.362   -0.440    2.761   33.505   26.920    6.943   -0.002    0.648 
 4793  148.828   -0.435    2.762   33.506   26.920    6.943   -0.002    0.648 
 4798  149.130   -0.435    2.762   33.507   26.921    6.943   -0.002    0.648 
 4806  149.669   -0.434    2.762   33.509   26.923    6.942   -0.002    0.648 
 4815  150.417   -0.433    2.762   33.514   26.927    6.942   -0.002    0.648 
 4819  150.754   -0.433    2.763   33.514   26.927    6.942   -0.002    0.648 
 4822  151.054   -0.431    2.763   33.514   26.927    6.941   -0.002    0.648 
 4825  151.316   -0.426    2.763   33.518   26.930    6.941   -0.002    0.648 
 4829  151.724   -0.422    2.764   33.519   26.930    6.941   -0.003    0.648 
 4833  152.064   -0.421    2.764   33.519   26.930    6.941   -0.003    0.648 
 4836  152.341   -0.417    2.764   33.521   26.932    6.940   -0.003    0.648 
 4839  152.620   -0.414    2.765   33.522   26.932    6.940   -0.003    0.648 
 4842  152.920   -0.409    2.765   33.524   26.934    6.940   -0.002    0.648 
 4845  153.164   -0.403    2.766   33.526   26.935    6.939   -0.002    0.648 
 4849  153.613   -0.398    2.767   33.528   26.937    6.939   -0.002    0.647 
 4856  154.116   -0.392    2.768   33.532   26.939    6.939   -0.002    0.647 
 4860  154.491   -0.385    2.768   33.535   26.942    6.938   -0.002    0.646 
 4868  155.071   -0.363    2.771   33.540   26.944    6.937   -0.002    0.646 
 4877  155.443   -0.358    2.771   33.540   26.944    6.937   -0.002    0.646 
 4991  155.854   -0.355    2.771   33.540   26.945    6.936   -0.002    0.646 
 5046  156.393   -0.354    2.772   33.545   26.948    6.933    0.003    0.646 
 5050  156.712   -0.354    2.772   33.549   26.952    6.933    0.003    0.645 
 5055  157.143   -0.354    2.772   33.550   26.952    6.932    0.003    0.645 
 5059  157.443   -0.353    2.772   33.551   26.953    6.932    0.003    0.645 
 5062  157.722   -0.352    2.772   33.552   26.954    6.932    0.003    0.645 
 5065  157.946   -0.350    2.773   33.553   26.955    6.931    0.003    0.645 
 5068  158.226   -0.349    2.773   33.554   26.955    6.931    0.003    0.645 
 5073  158.674   -0.347    2.773   33.555   26.956    6.931    0.003    0.645 
 5076  158.934   -0.346    2.773   33.556   26.957    6.931    0.003    0.645 
 5079  159.218   -0.345    2.773   33.556   26.957    6.931    0.003    0.645 
 5082  159.495   -0.344    2.774   33.556   26.957    6.931    0.003    0.645 
 5085  159.737   -0.343    2.774   33.556   26.957    6.931    0.002    0.645 
 5088  160.022   -0.343    2.774   33.557   26.957    6.930    0.001    0.645 
 5094  160.543   -0.342    2.774   33.557   26.957    6.930   -0.001    0.645 
 5100  160.989   -0.342    2.774   33.557   26.957    6.930   -0.002    0.645 
 5103  161.218   -0.342    2.774   33.557   26.957    6.930   -0.003    0.645 
 5107  161.477   -0.342    2.774   33.557   26.957    6.930   -0.003    0.644 
 5112  161.868   -0.342    2.774   33.557   26.957    6.930   -0.003    0.644 
 5116  162.057   -0.342    2.774   33.557   26.957    6.930   -0.003    0.644 
 5122  162.356   -0.342    2.774   33.557   26.958    6.929   -0.003    0.643 
 5128  162.636   -0.342    2.774   33.558   26.958    6.929   -0.003    0.643 
 5131  162.732   -0.342    2.774   33.558   26.958    6.928   -0.003    0.643 
 5138  162.915   -0.342    2.774   33.558   26.958    6.928   -0.003    0.642 
 5148  163.049   -0.342    2.774   33.558   26.958    6.928   -0.003    0.642 
 5180  163.273   -0.342    2.774   33.558   26.958    6.925   -0.003    0.642 
 5191  163.474   -0.341    2.774   33.558   26.958    6.925   -0.003    0.642 
 5201  163.814   -0.341    2.774   33.558   26.958    6.925   -0.003    0.642 
 5205  163.960   -0.340    2.774   33.559   26.959    6.922   -0.003    0.642 
 5210  164.207   -0.329    2.776   33.568   26.966    6.918   -0.003    0.642 
 5213  164.353   -0.326    2.776   33.568   26.966    6.918   -0.003    0.642 
 5219  164.675   -0.326    2.776   33.568   26.966    6.917   -0.003    0.642 
 5225  165.066   -0.325    2.776   33.569   26.966    6.915   -0.003    0.642 
 5228  165.287   -0.325    2.776   33.569   26.966    6.915   -0.003    0.642 
 5231  165.456   -0.324    2.776   33.569   26.966    6.915   -0.003    0.641 
 5234  165.665   -0.322    2.777   33.571   26.968    6.914   -0.003    0.641 
 5237  165.904   -0.319    2.777   33.573   26.969    6.913   -0.003    0.641 
 5243  166.262   -0.312    2.778   33.575   26.971    6.913   -0.003    0.641 
 5247  166.544   -0.310    2.778   33.576   26.971    6.913   -0.003    0.641 
 5253  166.912   -0.307    2.779   33.578   26.973    6.912   -0.003    0.641 
 5263  167.456   -0.298    2.780   33.583   26.976    6.911   -0.003    0.641 
 5267  167.625   -0.295    2.780   33.583   26.976    6.911   -0.003    0.641 
 5275  167.904   -0.291    2.780   33.583   26.976    6.910   -0.003    0.640 
 5280  168.000   -0.289    2.781   33.584   26.976    6.910   -0.003    0.640 
 5310  168.164   -0.264    2.783   33.584   26.977    6.901   -0.003    0.640 
 5360  168.282   -0.240    2.786   33.592   26.981    6.887   -0.003    0.640 
 5369  168.486   -0.237    2.786   33.594   26.983    6.887   -0.003    0.640 
 5380  168.746   -0.235    2.786   33.595   26.983    6.884   -0.003    0.640 
 5390  168.995   -0.231    2.786   33.597   26.985    6.884   -0.003    0.639 
 5408  169.534   -0.230    2.786   33.600   26.987    6.880   -0.003    0.639 
 5415  169.756   -0.226    2.787   33.601   26.988    6.877   -0.003    0.639 
 5430  170.263   -0.212    2.789   33.604   26.990    6.869   -0.004    0.639 
 5448  171.024   -0.200    2.790   33.607   26.991    6.864   -0.004    0.639 
 5455  171.306   -0.200    2.790   33.608   26.992    6.861   -0.004    0.639 
 5459  171.553   -0.200    2.790   33.609   26.993    6.860   -0.004    0.639 
 5465  171.832   -0.200    2.790   33.610   26.994    6.860   -0.004    0.639 
 5468  171.981   -0.199    2.790   33.610   26.994    6.860   -0.004    0.639 
 5474  172.334   -0.199    2.790   33.611   26.995    6.859   -0.004    0.639 
 5480  172.729   -0.195    2.791   33.614   26.997    6.857   -0.003    0.639 
 5483  172.936   -0.194    2.791   33.615   26.998    6.856   -0.003    0.639 
 5487  173.193   -0.191    2.791   33.616   26.998    6.855   -0.003    0.639 
 5491  173.498   -0.188    2.792   33.618   27.000    6.854   -0.003    0.639 
 5494  173.702   -0.186    2.792   33.618   27.000    6.854   -0.003    0.639 
 5497  173.926   -0.185    2.792   33.618   27.000    6.853   -0.002    0.640 
 5502  174.322   -0.183    2.792   33.619   27.000    6.851   -0.002    0.640 
 5506  174.617   -0.176    2.793   33.624   27.004    6.850   -0.002    0.640 
 5510  174.919   -0.164    2.795   33.631   27.009    6.847   -0.001    0.641 
 5513  175.199   -0.159    2.795   33.632   27.010    6.847    0.000    0.641 
 5516  175.423   -0.154    2.796   33.636   27.013    6.843    0.000    0.641 
 5519  175.662   -0.147    2.797   33.640   27.016    6.841    0.000    0.641 
 5523  176.005   -0.140    2.798   33.641   27.016    6.839    0.000    0.641 
 5527  176.302   -0.136    2.798   33.642   27.017    6.838    0.000    0.641 
 5531  176.584   -0.133    2.798   33.643   27.017    6.838    0.000    0.641 
 5535  176.917   -0.130    2.799   33.645   27.019    6.835    0.000    0.641 
 5538  177.121   -0.127    2.799   33.645   27.019    6.834    0.000    0.640 
 5541  177.368   -0.126    2.799   33.646   27.019    6.833    0.000    0.639 
 5544  177.575   -0.125    2.799   33.646   27.019    6.832    0.000    0.639 
 5547  177.794   -0.123    2.800   33.647   27.020    6.830    0.000    0.639 
 5551  178.076   -0.116    2.800   33.649   27.021    6.826    0.000    0.639 
 5556  178.371   -0.111    2.801   33.650   27.022    6.824   -0.001    0.639 
 5562  178.772   -0.098    2.802   33.656   27.026    6.819   -0.001    0.639 
 5567  179.089   -0.070    2.805   33.666   27.032    6.813   -0.002    0.638 
 5575  179.538   -0.046    2.807   33.667   27.032    6.805   -0.002    0.638 
 5583  179.951   -0.042    2.808   33.667   27.032    6.802   -0.002    0.638 
 5588  180.173   -0.041    2.808   33.667   27.033    6.801   -0.002    0.638 
 5596  180.536   -0.038    2.808   33.668   27.033    6.798   -0.002    0.637 
 5616  181.214   -0.027    2.810   33.673   27.036    6.792   -0.003    0.637 
 5673  181.491   -0.027    2.810   33.677   27.040    6.776   -0.003    0.637 
 5762  181.740   -0.027    2.810   33.680   27.042    6.749   -0.003    0.637 
 5766  181.989   -0.027    2.810   33.680   27.042    6.746   -0.003    0.637 
 5776  182.624   -0.026    2.810   33.681   27.043    6.744   -0.004    0.637 
 5782  183.012   -0.026    2.810   33.681   27.043    6.741   -0.004    0.637 
 5787  183.385   -0.026    2.810   33.682   27.044    6.741   -0.004    0.637 
 5790  183.610   -0.026    2.810   33.682   27.044    6.741   -0.003    0.637 
 5793  183.841   -0.026    2.811   33.682   27.044    6.741   -0.003    0.637 
 5797  184.096   -0.026    2.811   33.682   27.044    6.741   -0.003    0.637 
 5801  184.469   -0.026    2.811   33.682   27.044    6.741   -0.003    0.637 
 5804  184.696   -0.027    2.811   33.683   27.044    6.741   -0.003    0.637 
 5809  185.089   -0.027    2.811   33.684   27.045    6.741   -0.004    0.637 
 5812  185.331   -0.027    2.811   33.687   27.048    6.741   -0.004    0.637 
 5816  185.638   -0.027    2.811   33.696   27.055    6.741   -0.004    0.637 
 5821  186.041   -0.030    2.811   33.698   27.057    6.741   -0.004    0.637 
 5825  186.341   -0.032    2.811   33.698   27.057    6.741   -0.004    0.637 
 5828  186.585   -0.033    2.811   33.699   27.058    6.742   -0.004    0.637 
 5832  186.845   -0.036    2.811   33.699   27.058    6.742   -0.004    0.636 
 5839  187.331   -0.043    2.811   33.699   27.058    6.743   -0.004    0.636 
 5843  187.651   -0.045    2.811   33.700   27.059    6.745   -0.004    0.636 
 5847  187.923   -0.045    2.811   33.700   27.059    6.747   -0.004    0.635 
 5854  188.379   -0.045    2.811   33.700   27.059    6.748   -0.004    0.636 
 5865  188.977   -0.045    2.811   33.700   27.059    6.750   -0.004    0.635 
 5871  189.324   -0.045    2.811   33.702   27.061    6.751   -0.004    0.635 
 5880  189.707   -0.045    2.811   33.708   27.065    6.751   -0.004    0.635 
 5895  190.204   -0.045    2.811   33.711   27.068    6.751   -0.004    0.635 
 5923  190.747   -0.045    2.811   33.713   27.069    6.751   -0.004    0.635 
 5954  191.569   -0.045    2.811   33.714   27.070    6.751   -0.004    0.634 
 5967  192.045   -0.045    2.811   33.716   27.072    6.751   -0.004    0.634 
 5975  192.410   -0.045    2.812   33.717   27.073    6.751   -0.004    0.634 
 5985  192.886   -0.044    2.812   33.718   27.073    6.751   -0.004    0.634 
 5990  193.121   -0.038    2.813   33.721   27.076    6.751   -0.005    0.634 
 5994  193.347   -0.031    2.814   33.723   27.077    6.751   -0.005    0.634 
 5998  193.542   -0.019    2.815   33.728   27.080    6.751   -0.005    0.634 
 6002  193.758   -0.004    2.816   33.728   27.080    6.751   -0.005    0.634 
 6011  194.139    0.011    2.818   33.729   27.080    6.751   -0.005    0.634 
 6022  194.524    0.034    2.820   33.734   27.083    6.750   -0.005    0.634 
 6043  195.010    0.067    2.823   33.738   27.084    6.750   -0.005    0.634 
 6070  195.237    0.077    2.824   33.740   27.085    6.749   -0.005    0.634 
 6107  195.423    0.084    2.825   33.742   27.086    6.749   -0.005    0.634 
 6124  195.740    0.084    2.826   33.746   27.090    6.749   -0.005    0.634 
 6140  196.236    0.089    2.826   33.747   27.090    6.749   -0.005    0.634 
 6148  196.544    0.090    2.826   33.748   27.091    6.748   -0.005    0.634 
 6154  196.854    0.094    2.826   33.749   27.092    6.748   -0.005    0.634 
 6159  197.106    0.097    2.827   33.750   27.092    6.747   -0.005    0.634 
 6168  197.599    0.099    2.827   33.762   27.102    6.745   -0.005    0.633 
 6173  197.937    0.099    2.827   33.766   27.105    6.744   -0.005    0.633 
 6177  198.227    0.100    2.828   33.767   27.106    6.744   -0.005    0.634 
 6183  198.603    0.101    2.828   33.768   27.107    6.744   -0.005    0.633 
 6186  198.789    0.103    2.829   33.769   27.107    6.744   -0.005    0.634 
 6192  199.217    0.107    2.829   33.769   27.107    6.743   -0.005    0.634 
 6196  199.449    0.108    2.829   33.769   27.107    6.743   -0.005    0.634 
 6203  199.941    0.108    2.829   33.770   27.108    6.740   -0.005    0.634 
 6210  200.387    0.110    2.829   33.770   27.108    6.740   -0.005    0.634 
 6214  200.604    0.111    2.829   33.770   27.108    6.740   -0.005    0.634 
 6217  200.772    0.112    2.829   33.770   27.108    6.737   -0.005    0.634 
 6220  200.934    0.113    2.830   33.771   27.108    6.736   -0.005    0.634 
 6226  201.249    0.121    2.830   33.773   27.109    6.734   -0.005    0.634 
 6234  201.649    0.127    2.831   33.775   27.111    6.734   -0.005    0.633 
 6240  201.932    0.131    2.832   33.776   27.111    6.732   -0.004    0.633 
 6245  202.108    0.133    2.832   33.777   27.112    6.731   -0.005    0.633 
 6255  202.491    0.137    2.832   33.777   27.112    6.729   -0.005    0.632 
 6268  202.914    0.140    2.832   33.777   27.112    6.729   -0.005    0.632 
 6277  203.204    0.141    2.833   33.778   27.113    6.729   -0.005    0.632 
 6283  203.391    0.141    2.833   33.778   27.113    6.729   -0.005    0.632 
 6299  203.905    0.146    2.833   33.780   27.114    6.728   -0.005    0.632 
 6307  204.174    0.149    2.833   33.781   27.115    6.728   -0.005    0.632 
 6315  204.409    0.154    2.834   33.783   27.116    6.727   -0.005    0.632 
 6321  204.608    0.160    2.835   33.786   27.118    6.725   -0.005    0.632 
 6330  204.963    0.188    2.838   33.794   27.122    6.720   -0.005    0.632 
 6338  205.253    0.198    2.839   33.794   27.123    6.719   -0.005    0.632 
 6341  205.356    0.199    2.839   33.796   27.124    6.717   -0.005    0.632 
 6346  205.563    0.203    2.839   33.798   27.125    6.713   -0.005    0.632 
 6353  205.850    0.216    2.841   33.805   27.130    6.712   -0.005    0.632 
 6357  206.019    0.222    2.842   33.807   27.132    6.711   -0.005    0.632 
 6361  206.198    0.226    2.842   33.808   27.132    6.709   -0.005    0.632 
 6367  206.478    0.247    2.844   33.816   27.137    6.701   -0.005    0.632 
 6376  206.881    0.266    2.846   33.817   27.138    6.700   -0.005    0.632 
 6386  207.377    0.289    2.848   33.822   27.140    6.693   -0.005    0.632 
 6389  207.529    0.294    2.849   33.824   27.141    6.692   -0.005    0.632 
 6392  207.665    0.301    2.850   33.826   27.143    6.691   -0.005    0.632 
 6400  208.058    0.325    2.852   33.832   27.146    6.687   -0.005    0.631 
 6404  208.242    0.330    2.853   33.832   27.146    6.685   -0.005    0.631 
 6412  208.615    0.334    2.853   33.833   27.146    6.685   -0.005    0.631 
 6418  208.824    0.335    2.853   33.833   27.147    6.685   -0.005    0.631 
 6430  209.162    0.338    2.854   33.834   27.147    6.682   -0.005    0.631 
 6473  209.436    0.338    2.854   33.834   27.147    6.682   -0.005    0.631 
 6535  209.741    0.339    2.854   33.835   27.148    6.678   -0.004    0.631 
 6541  210.094    0.339    2.854   33.838   27.150    6.676   -0.003    0.631 
 6544  210.248    0.353    2.856   33.844   27.154    6.673   -0.003    0.631 
 6547  210.467    0.365    2.857   33.844   27.154    6.670   -0.003    0.631 
 6552  210.825    0.381    2.858   33.847   27.155    6.668   -0.003    0.631 
 6555  211.090    0.392    2.859   33.849   27.156    6.666   -0.003    0.631 
 6558  211.289    0.400    2.860   33.849   27.156    6.665   -0.003    0.631 
 6563  211.763    0.420    2.862   33.855   27.160    6.659   -0.003    0.631 
 6566  212.007    0.433    2.863   33.857   27.160    6.658   -0.003    0.631 
 6569  212.282    0.440    2.864   33.859   27.162    6.656   -0.003    0.631 
 6572  212.567    0.440    2.865   33.861   27.163    6.656   -0.003    0.631 
 6575  212.832    0.443    2.865   33.862   27.164    6.656   -0.003    0.631 
 6578  213.107    0.443    2.865   33.863   27.165    6.656   -0.003    0.631 
 6581  213.336    0.443    2.865   33.864   27.166    6.655   -0.003    0.631 
 6586  213.805    0.446    2.865   33.869   27.169    6.655   -0.002    0.631 
 6589  214.032    0.447    2.865   33.870   27.170    6.655   -0.002    0.631 
 6592  214.269    0.447    2.866   33.873   27.172    6.655   -0.002    0.631 
 6595  214.499    0.448    2.866   33.875   27.174    6.655   -0.002    0.631 
 6598  214.685    0.448    2.866   33.875   27.174    6.655   -0.002    0.631 
 6602  214.942    0.448    2.866   33.876   27.175    6.655   -0.002    0.631 
 6610  215.336    0.448    2.866   33.876   27.175    6.655   -0.002    0.631 
 6616  215.512    0.449    2.866   33.877   27.176    6.655   -0.002    0.631 
 6627  215.886    0.449    2.867   33.878   27.176    6.655   -0.003    0.631 
 6638  216.112    0.452    2.867   33.878   27.176    6.655   -0.003    0.631 
 6657  216.433    0.452    2.867   33.879   27.177    6.655   -0.003    0.631 
 6670  216.743    0.456    2.867   33.881   27.178    6.655   -0.003    0.630 
 6674  216.844    0.457    2.868   33.881   27.178    6.655   -0.003    0.630 
 6679  217.023    0.461    2.868   33.882   27.179    6.654   -0.003    0.630 
 6690  217.368    0.492    2.871   33.891   27.184    6.653   -0.003    0.630 
 6697  217.641    0.503    2.872   33.892   27.185    6.651   -0.003    0.630 
 6706  217.961    0.505    2.873   33.895   27.187    6.650   -0.003    0.630 
 6720  218.485    0.514    2.874   33.899   27.190    6.646   -0.003    0.630 
 6738  219.030    0.534    2.876   33.905   27.193    6.643   -0.004    0.630 
 6745  219.179    0.554    2.878   33.911   27.197    6.639   -0.004    0.630 
 6752  219.305    0.569    2.880   33.913   27.198    6.634   -0.004    0.630 
 6772  219.590    0.584    2.881   33.915   27.198    6.634   -0.004    0.630 
 6801  220.064    0.590    2.882   33.919   27.201    6.634   -0.004    0.630 
 6817  220.530    0.593    2.882   33.922   27.204    6.634   -0.004    0.630 
 6827  220.901    0.600    2.883   33.925   27.206    6.633   -0.004    0.630 
 6833  221.204    0.603    2.884   33.928   27.208    6.632   -0.004    0.630 
 6848  221.968    0.606    2.884   33.932   27.211    6.631   -0.004    0.630 
 6853  222.290    0.606    2.885   33.937   27.215    6.628   -0.004    0.630 
 6858  222.555    0.617    2.886   33.942   27.218    6.627   -0.004    0.630 
 6862  222.832    0.636    2.888   33.945   27.219    6.623   -0.004    0.629 
 6865  223.004    0.643    2.888   33.946   27.220    6.621   -0.004    0.629 
 6868  223.188    0.648    2.889   33.946   27.220    6.619   -0.004    0.629 
 6871  223.359    0.651    2.889   33.946   27.220    6.617   -0.004    0.629 
 6880  223.881    0.663    2.890   33.951   27.223    6.615   -0.004    0.629 
 6894  224.577    0.721    2.897   33.966   27.231    6.600   -0.004    0.629 
 6902  224.915    0.748    2.899   33.969   27.232    6.595   -0.004    0.629 
 6911  225.210    0.766    2.901   33.973   27.234    6.595   -0.004    0.629 
 6921  225.475    0.785    2.903   33.976   27.236    6.592   -0.004    0.629 
 6932  225.754    0.793    2.904   33.977   27.236    6.588   -0.004    0.629 
 6953  226.299    0.794    2.904   33.979   27.237    6.587   -0.004    0.629 
 6965  226.652    0.795    2.904   33.980   27.238    6.587   -0.004    0.629 
 6971  226.841    0.795    2.904   33.981   27.239    6.585   -0.004    0.629 
 6981  227.290    0.798    2.905   33.982   27.240    6.583   -0.005    0.629 
 6986  227.517    0.802    2.905   33.985   27.242    6.583   -0.005    0.629 
 6996  228.003    0.830    2.908   33.993   27.246    6.578   -0.005    0.629 
 7001  228.321    0.866    2.912   34.005   27.253    6.569   -0.005    0.629 
 7006  228.565    0.892    2.915   34.007   27.253    6.564   -0.005    0.629 
 7010  228.807    0.907    2.916   34.007   27.254    6.562   -0.005    0.629 
 7014  229.014    0.912    2.916   34.008   27.254    6.561   -0.005    0.629 
 7018  229.256    0.923    2.917   34.011   27.255    6.559   -0.005    0.629 
 7024  229.577    0.929    2.918   34.011   27.255    6.557   -0.005    0.629 
 7030  229.877    0.930    2.918   34.011   27.255    6.557   -0.005    0.629 
 7041  230.323    0.933    2.918   34.013   27.256    6.557   -0.005    0.629 
 7100  231.202    0.933    2.919   34.014   27.257    6.553   -0.005    0.629 
 7133  231.918    0.936    2.919   34.016   27.258    6.552   -0.005    0.629 
 7148  232.629    0.946    2.920   34.018   27.259    6.550   -0.005    0.629 
 7152  232.909    0.948    2.920   34.018   27.259    6.549   -0.005    0.629 
 7156  233.212    0.949    2.920   34.019   27.260    6.549   -0.005    0.629 
 7162  233.585    0.951    2.921   34.019   27.260    6.547   -0.005    0.628 
 7166  233.923    0.953    2.921   34.020   27.260    6.547   -0.005    0.629 
 7172  234.316    0.955    2.921   34.020   27.260    6.546   -0.005    0.628 
 7177  234.692    0.955    2.921   34.020   27.260    6.546   -0.005    0.628 
 7183  235.083    0.956    2.921   34.021   27.261    6.546   -0.004    0.628 
 7188  235.438    0.965    2.922   34.026   27.265    6.546   -0.004    0.628 
 7193  235.739    0.982    2.924   34.030   27.266    6.544   -0.004    0.629 
 7207  236.281    0.995    2.925   34.030   27.267    6.544   -0.004    0.629 
 7272  237.405    1.007    2.927   34.035   27.269    6.541   -0.003    0.629 
 7291  238.042    1.018    2.928   34.037   27.270    6.537   -0.003    0.629 
 7298  238.360    1.033    2.930   34.045   27.275    6.532   -0.003    0.629 
 7312  239.094    1.082    2.935   34.052   27.278    6.532   -0.003    0.629 
 7315  239.261    1.083    2.935   34.052   27.278    6.532   -0.003    0.629 
 7325  239.843    1.089    2.935   34.054   27.279    6.532   -0.003    0.629 
 7329  240.047    1.092    2.936   34.054   27.279    6.532   -0.003    0.629 
 7333  240.289    1.093    2.936   34.054   27.279    6.532   -0.003    0.629 
 7341  240.683    1.095    2.936   34.055   27.279    6.532   -0.003    0.629 
 7350  241.096    1.100    2.937   34.056   27.280    6.531   -0.003    0.629 
 7359  241.490    1.103    2.937   34.057   27.280    6.530   -0.003    0.629 
 7367  241.752    1.107    2.937   34.057   27.281    6.528   -0.002    0.629 
 7389  242.405    1.115    2.938   34.059   27.281    6.527   -0.002    0.629 
 7408  242.877    1.116    2.938   34.060   27.282    6.526   -0.002    0.629 
 7433  243.567    1.166    2.943   34.071   27.288    6.526   -0.002    0.629 
 7449  244.016    1.192    2.946   34.076   27.290    6.526   -0.002    0.629 
 7462  244.372    1.209    2.948   34.080   27.292    6.526   -0.002    0.629 
 7485  244.921    1.252    2.952   34.089   27.296    6.526   -0.002    0.629 
 7501  245.348    1.277    2.955   34.092   27.297    6.526   -0.002    0.629 
 7513  245.761    1.304    2.958   34.100   27.302    6.526   -0.002    0.629 
 7524  246.228    1.329    2.960   34.106   27.305    6.526   -0.003    0.629 
 7528  246.417    1.352    2.963   34.114   27.309    6.522   -0.003    0.629 
 7538  246.942    1.409    2.968   34.123   27.313    6.512   -0.004    0.629 
 7543  247.242    1.434    2.971   34.126   27.313    6.508   -0.004    0.629 
 7546  247.408    1.444    2.972   34.126   27.313    6.502   -0.004    0.629 
 7549  247.595    1.452    2.972   34.127   27.313    6.501   -0.005    0.629 
 7552  247.787    1.457    2.973   34.129   27.314    6.501   -0.005    0.629 
 7559  248.233    1.495    2.977   34.136   27.317    6.495   -0.005    0.629 
 7563  248.440    1.512    2.979   34.142   27.321    6.488   -0.005    0.629 
 7567  248.740    1.537    2.981   34.145   27.321    6.486   -0.005    0.629 
 7572  249.040    1.539    2.982   34.146   27.322    6.483   -0.005    0.629 
 7578  249.378    1.550    2.982   34.147   27.322    6.483   -0.005    0.629 
 7582  249.621    1.552    2.983   34.147   27.322    6.483   -0.005    0.629 
 7585  249.772    1.554    2.983   34.147   27.322    6.482   -0.005    0.629 
 7589  249.921    1.554    2.983   34.147   27.322    6.482   -0.005    0.629 
 7595  250.204    1.554    2.983   34.148   27.323    6.482   -0.005    0.629 
 7601  250.413    1.554    2.983   34.149   27.323    6.482   -0.005    0.630 
 7625  250.786    1.555    2.983   34.149   27.323    6.482   -0.005    0.630 
 7664  251.097    1.555    2.983   34.149   27.323    6.480   -0.005    0.630 
 7678  251.417    1.557    2.983   34.151   27.325    6.480   -0.005    0.630 
 7681  251.515    1.557    2.983   34.152   27.325    6.479   -0.005    0.630 
 7685  251.642    1.561    2.984   34.156   27.328    6.477   -0.005    0.629 
 7693  252.007    1.578    2.986   34.159   27.330    6.472   -0.005    0.629 
 7702  252.429    1.597    2.988   34.164   27.332    6.466   -0.005    0.629 
 7707  252.696    1.610    2.989   34.165   27.332    6.465   -0.005    0.629 
 7710  252.843    1.619    2.990   34.167   27.332    6.462   -0.005    0.629 
 7714  253.027    1.627    2.991   34.167   27.333    6.461   -0.005    0.629 
 7718  253.277    1.632    2.991   34.168   27.333    6.460   -0.005    0.630 
 7721  253.428    1.634    2.991   34.168   27.333    6.460   -0.005    0.630 
 7724  253.592    1.635    2.992   34.168   27.333    6.456   -0.005    0.630 
 7728  253.804    1.636    2.992   34.169   27.333    6.456   -0.005    0.630 
 7733  254.104    1.636    2.992   34.169   27.333    6.456   -0.005    0.630 
 7737  254.286    1.636    2.992   34.169   27.333    6.456   -0.005    0.630 
 7747  254.760    1.636    2.992   34.170   27.334    6.456   -0.005    0.630 
 7751  254.922    1.636    2.992   34.170   27.334    6.453   -0.005    0.630 
 7758  255.202    1.636    2.992   34.171   27.335    6.453   -0.005    0.630 
 7766  255.472    1.636    2.992   34.171   27.335    6.450   -0.005    0.630 
 7769  255.580    1.636    2.992   34.171   27.335    6.450   -0.005    0.629 
 7781  255.954    1.636    2.992   34.172   27.336    6.450   -0.005    0.629 
 7796  256.352    1.636    2.992   34.173   27.337    6.450   -0.005    0.629 
 7807  256.635    1.636    2.992   34.173   27.337    6.449   -0.005    0.630 
 7820  257.021    1.632    2.992   34.173   27.337    6.449   -0.005    0.630 
 7826  257.178    1.628    2.992   34.173   27.337    6.449   -0.005    0.630 
 7830  257.286    1.628    2.992   34.173   27.337    6.448   -0.005    0.630 
 7835  257.478    1.628    2.992   34.173   27.337    6.448   -0.005    0.630 
 7839  257.604    1.628    2.992   34.173   27.337    6.448   -0.005    0.630 
 7845  257.829    1.628    2.992   34.173   27.337    6.446   -0.005    0.630 
 7850  258.041    1.628    2.992   34.177   27.340    6.444   -0.005    0.630 
 7854  258.184    1.628    2.992   34.177   27.340    6.442   -0.005    0.630 
 7859  258.394    1.628    2.992   34.177   27.340    6.439   -0.005    0.630 
 7862  258.528    1.628    2.992   34.178   27.341    6.435   -0.005    0.630 
 7870  258.886    1.628    2.992   34.179   27.342    6.432   -0.005    0.630 
 7874  259.050    1.628    2.992   34.181   27.343    6.430   -0.005    0.630 
 7877  259.181    1.631    2.993   34.181   27.344    6.425   -0.005    0.630 
 7880  259.318    1.637    2.993   34.183   27.344    6.425   -0.005    0.630 
 7886  259.580    1.645    2.994   34.184   27.345    6.420   -0.005    0.630 
 7894  259.953    1.661    2.996   34.193   27.351    6.414   -0.005    0.630 
 7897  260.097    1.669    2.997   34.194   27.351    6.413   -0.005    0.630 
 7906  260.544    1.674    2.997   34.195   27.351    6.407   -0.005    0.630 
 7912  260.771    1.680    2.998   34.200   27.355    6.403   -0.005    0.630 
 7917  260.998    1.683    2.999   34.201   27.355    6.402   -0.005    0.630 
 7921  261.175    1.684    2.999   34.201   27.356    6.399   -0.005    0.631 
 7924  261.299    1.684    2.999   34.202   27.356    6.397   -0.005    0.631 
 7928  261.503    1.684    2.999   34.203   27.357    6.396   -0.005    0.631 
 7933  261.730    1.686    2.999   34.205   27.359    6.394   -0.005    0.631 
 7940  262.030    1.687    2.999   34.206   27.359    6.392   -0.005    0.631 
 7948  262.374    1.688    3.000   34.206   27.359    6.388   -0.005    0.631 
 7955  262.674    1.689    3.000   34.207   27.360    6.385   -0.005    0.631 
 7958  262.800    1.690    3.000   34.207   27.360    6.384   -0.005    0.631 
 7964  263.053    1.693    3.000   34.209   27.361    6.383   -0.005    0.631 
 7971  263.343    1.710    3.002   34.215   27.365    6.379   -0.005    0.631 
 7978  263.595    1.739    3.005   34.221   27.367    6.371   -0.005    0.631 
 7990  263.941    1.764    3.008   34.224   27.368    6.365   -0.005    0.631 
 8000  264.186    1.772    3.008   34.225   27.368    6.361   -0.005    0.631 
 8010  264.413    1.779    3.009   34.225   27.368    6.357   -0.005    0.631 
 8038  264.726    1.789    3.010   34.232   27.373    6.348   -0.005    0.631 
 8060  264.938    1.827    3.014   34.239   27.375    6.335   -0.005    0.631 
 8081  265.327    1.848    3.017   34.245   27.379    6.321   -0.005    0.631 
 8090  265.546    1.853    3.017   34.246   27.379    6.315   -0.005    0.631 
 8099  265.821    1.858    3.018   34.247   27.379    6.312   -0.005    0.631 
 8104  265.988    1.861    3.018   34.249   27.381    6.310   -0.005    0.631 
 8107  266.122    1.862    3.018   34.249   27.381    6.310   -0.005    0.631 
 8118  266.588    1.887    3.021   34.255   27.384    6.302   -0.005    0.631 
 8123  266.816    1.890    3.021   34.256   27.384    6.302   -0.005    0.631 
 8128  267.076    1.892    3.021   34.256   27.384    6.298   -0.005    0.631 
 8138  267.603    1.901    3.022   34.260   27.386    6.297   -0.005    0.631 
 8157  268.698    1.908    3.024   34.262   27.388    6.287   -0.005    0.631 
 8164  269.039    1.910    3.024   34.263   27.388    6.286   -0.005    0.631 
 8170  269.385    1.911    3.024   34.264   27.389    6.285   -0.005    0.631 
 8175  269.647    1.912    3.024   34.264   27.389    6.282   -0.005    0.631 
 8180  269.910    1.913    3.024   34.264   27.389    6.278   -0.005    0.631 
 8192  270.511    1.924    3.025   34.271   27.394    6.271   -0.005    0.631 
 8203  270.990    1.944    3.028   34.280   27.399    6.257   -0.005    0.631 
 8213  271.394    1.975    3.031   34.287   27.402    6.251   -0.005    0.631 
 8228  271.947    1.994    3.033   34.293   27.406    6.239   -0.005    0.631 
 8241  272.368    2.003    3.034   34.295   27.407    6.233   -0.005    0.631 
 8255  272.828    2.011    3.035   34.298   27.408    6.230   -0.005    0.631 
 8269  273.280    2.026    3.037   34.302   27.410    6.226   -0.005    0.631 
 8281  273.691    2.039    3.038   34.305   27.412    6.225   -0.005    0.631 
 8294  274.181    2.069    3.042   34.316   27.418    6.223   -0.005    0.631 
 8314  274.902    2.093    3.044   34.319   27.419    6.223   -0.005    0.631 
 8322  275.190    2.102    3.045   34.322   27.420    6.223   -0.005    0.632 
 8334  275.604    2.113    3.046   34.325   27.422    6.222   -0.005    0.631 
 8351  276.124    2.119    3.047   34.326   27.422    6.222   -0.005    0.632 
 8371  276.609    2.122    3.047   34.328   27.424    6.219   -0.005    0.632 
 8382  276.881    2.125    3.048   34.329   27.424    6.217   -0.005    0.632 
 8400  277.371    2.132    3.048   34.331   27.425    6.211   -0.005    0.632 
 8425  278.148    2.136    3.049   34.332   27.426    6.198   -0.005    0.632 
 8443  278.832    2.149    3.050   34.336   27.428    6.186   -0.005    0.632 
 8466  279.677    2.170    3.053   34.342   27.431    6.167   -0.005    0.632 
 8491  280.593    2.191    3.055   34.348   27.434    6.146   -0.005    0.632 
 8504  280.979    2.202    3.056   34.350   27.435    6.137   -0.005    0.632 
 8518  281.383    2.234    3.060   34.361   27.441    6.122   -0.005    0.632 
 8537  281.946    2.261    3.063   34.367   27.444    6.111   -0.005    0.632 
 8547  282.264    2.267    3.064   34.369   27.445    6.105   -0.005    0.632 
 8564  282.809    2.275    3.065   34.374   27.448    6.095   -0.005    0.632 
 8577  283.321    2.281    3.065   34.377   27.450    6.084   -0.005    0.632 
 8592  283.990    2.293    3.067   34.385   27.455    6.071   -0.005    0.632 
 8600  284.356    2.306    3.069   34.390   27.458    6.065   -0.005    0.632 
 8603  284.477    2.311    3.069   34.392   27.460    6.061   -0.005    0.632 
 8606  284.648    2.316    3.070   34.393   27.460    6.060   -0.005    0.632 
 8611  284.878    2.322    3.070   34.395   27.461    6.053   -0.005    0.632 
 8616  285.141    2.324    3.071   34.395   27.461    6.049   -0.005    0.633 
 8623  285.491    2.347    3.074   34.412   27.470    6.040   -0.005    0.633 
 8626  285.648    2.371    3.076   34.412   27.471    6.034   -0.005    0.633 
 8636  286.206    2.392    3.078   34.414   27.471    6.022   -0.005    0.633 
 8642  286.493    2.397    3.079   34.416   27.472    6.019   -0.005    0.634 
 8653  287.056    2.404    3.079   34.416   27.473    6.010   -0.005    0.634 
 8659  287.314    2.413    3.081   34.421   27.474    6.003   -0.005    0.634 
 8666  287.649    2.434    3.083   34.429   27.478    5.994   -0.005    0.634 
 8672  287.919    2.451    3.085   34.430   27.478    5.987   -0.005    0.634 
 8682  288.275    2.459    3.085   34.431   27.479    5.981   -0.005    0.634 
 8693  288.576    2.463    3.086   34.432   27.479    5.976   -0.005    0.634 
 8712  288.934    2.472    3.087   34.435   27.480    5.963   -0.004    0.634 
 8755  289.481    2.486    3.088   34.439   27.483    5.939   -0.004    0.634 
 8772  289.794    2.489    3.089   34.442   27.485    5.926   -0.004    0.634 
 8786  290.195    2.501    3.090   34.444   27.485    5.919   -0.003    0.634 
 8805  290.884    2.510    3.091   34.446   27.486    5.914   -0.003    0.634 
 8813  291.295    2.510    3.091   34.446   27.486    5.914   -0.003    0.634 
 8818  291.540    2.510    3.091   34.447   27.487    5.911   -0.003    0.634 
 8821  291.689    2.512    3.092   34.447   27.487    5.911   -0.003    0.634 
 8824  291.856    2.513    3.092   34.448   27.487    5.911   -0.003    0.634 
 8828  292.030    2.514    3.092   34.448   27.487    5.909   -0.003    0.634 
 8834  292.366    2.515    3.092   34.448   27.487    5.908   -0.003    0.634 
 8837  292.535    2.515    3.092   34.448   27.487    5.907   -0.003    0.634 
 8844  292.873    2.516    3.092   34.448   27.487    5.904   -0.003    0.634 
 8851  293.181    2.518    3.092   34.449   27.488    5.903   -0.003    0.634 
 8868  293.810    2.518    3.092   34.449   27.488    5.900   -0.003    0.635 
 8888  294.304    2.520    3.093   34.450   27.488    5.897   -0.003    0.635 
 8896  294.448    2.520    3.093   34.450   27.488    5.897   -0.003    0.635 
 8917  294.781    2.520    3.093   34.450   27.488    5.892   -0.003    0.635 
 8931  295.094    2.520    3.093   34.451   27.489    5.892   -0.003    0.635 
 8949  295.614    2.520    3.093   34.451   27.489    5.892   -0.003    0.635 
 8953  295.780    2.520    3.093   34.451   27.489    5.892   -0.003    0.635 
 8961  296.139    2.520    3.093   34.451   27.489    5.891   -0.003    0.635 
 8966  296.363    2.520    3.093   34.451   27.489    5.891   -0.003    0.635 
 8970  296.530    2.520    3.093   34.451   27.489    5.891   -0.003    0.635 
 8974  296.719    2.520    3.093   34.451   27.489    5.890   -0.003    0.635 
 8981  297.078    2.520    3.093   34.451   27.489    5.890   -0.003    0.635 
 8988  297.474    2.521    3.093   34.451   27.489    5.890   -0.003    0.635 
 8999  298.095    2.521    3.093   34.451   27.489    5.890   -0.003    0.635 
 9003  298.280    2.521    3.093   34.451   27.489    5.890   -0.003    0.635 
 9006  298.431    2.521    3.093   34.451   27.489    5.890   -0.003    0.636 
 9011  298.696    2.521    3.093   34.451   27.489    5.890   -0.003    0.636 
 9016  298.936    2.521    3.093   34.452   27.490    5.889   -0.003    0.636 
 9020  299.141    2.521    3.093   34.452   27.490    5.889   -0.002    0.636 
 9025  299.350    2.521    3.093   34.452   27.490    5.889   -0.001    0.636 
 9029  299.497    2.521    3.093   34.452   27.490    5.889   -0.001    0.635 
 9035  299.744    2.521    3.093   34.452   27.490    5.889   -0.001    0.635 
 9043  299.971    2.521    3.093   34.452   27.490    5.889   -0.001    0.636 
 9049  300.140    2.521    3.093   34.452   27.490    5.889   -0.001    0.636 
 9054  300.267    2.521    3.093   34.452   27.490    5.889   -0.001    0.636 
 9064  300.458    2.521    3.093   34.453   27.490    5.889   -0.001    0.636 
 9081  300.835    2.521    3.093   34.453   27.491    5.889   -0.001    0.636 
 9087  301.004    2.521    3.093   34.453   27.491    5.889   -0.001    0.637 
 9092  301.168    2.522    3.093   34.453   27.491    5.889   -0.001    0.637 
 9095  301.246    2.522    3.093   34.453   27.491    5.889   -0.001    0.637 
 9105  301.658    2.522    3.093   34.453   27.491    5.888   -0.001    0.638 
 9122  302.428    2.522    3.093   34.453   27.491    5.888   -0.001    0.637 
 9130  302.862    2.524    3.094   34.453   27.491    5.887   -0.001    0.637 
 9136  303.178    2.524    3.094   34.454   27.491    5.887   -0.001    0.637 
 9146  303.595    2.525    3.094   34.454   27.491    5.887   -0.001    0.637 
 9156  303.968    2.527    3.094   34.454   27.491    5.887   -0.001    0.637 
 9169  304.198    2.527    3.094   34.454   27.491    5.886   -0.001    0.638 
 9232  304.569    2.528    3.094   34.455   27.491    5.881   -0.001    0.638 
 9241  304.854    2.528    3.094   34.455   27.491    5.879   -0.002    0.638 
 9246  305.074    2.531    3.094   34.455   27.492    5.879   -0.002    0.638 
 9253  305.377    2.531    3.094   34.455   27.492    5.877   -0.002    0.638 
 9257  305.584    2.532    3.095   34.456   27.492    5.877   -0.002    0.638 
 9262  305.867    2.533    3.095   34.456   27.492    5.877   -0.002    0.638 
 9265  306.052    2.534    3.095   34.456   27.492    5.877   -0.002    0.638 
 9268  306.226    2.535    3.095   34.456   27.492    5.875   -0.002    0.638 
 9271  306.390    2.536    3.095   34.457   27.493    5.875   -0.002    0.638 
 9275  306.638    2.536    3.095   34.457   27.493    5.875   -0.002    0.638 
 9283  307.178    2.537    3.095   34.457   27.493    5.875   -0.002    0.638 
 9288  307.519    2.537    3.095   34.457   27.493    5.875   -0.002    0.638 
 9293  307.860    2.537    3.095   34.457   27.493    5.875   -0.002    0.638 
 9296  308.065    2.537    3.095   34.457   27.493    5.875   -0.002    0.638 
 9299  308.254    2.538    3.095   34.457   27.493    5.874   -0.002    0.638 
 9302  308.459    2.538    3.095   34.457   27.493    5.874   -0.002    0.638 
 9307  308.762    2.538    3.095   34.457   27.493    5.874   -0.002    0.638 
 9315  309.249    2.538    3.095   34.457   27.493    5.874   -0.002    0.638 
 9326  309.886    2.538    3.095   34.458   27.493    5.874   -0.002    0.638 
 9335  310.338    2.539    3.096   34.458   27.493    5.874   -0.002    0.638 
 9353  311.108    2.539    3.096   34.458   27.493    5.874   -0.002    0.639 
 9365  311.578    2.540    3.096   34.459   27.494    5.874   -0.002    0.639 
 9388  312.182    2.540    3.096   34.459   27.494    5.874   -0.002    0.639 
 9450  312.687    2.540    3.096   34.459   27.494    5.872   -0.002    0.640 
 9482  313.195    2.540    3.096   34.459   27.494    5.872   -0.002    0.640 
 9496  313.682    2.541    3.096   34.459   27.494    5.872   -0.002    0.640 
 9503  314.003    2.541    3.096   34.459   27.494    5.871   -0.002    0.640 
 9516  314.640    2.542    3.096   34.459   27.494    5.871   -0.002    0.640 
 9525  315.165    2.542    3.096   34.459   27.494    5.871   -0.002    0.640 
 9531  315.430    2.542    3.096   34.459   27.494    5.870   -0.002    0.640 
 9545  316.052    2.542    3.096   34.459   27.494    5.870   -0.002    0.640 
 9554  316.390    2.543    3.096   34.459   27.494    5.870   -0.002    0.641 
 9573  316.989    2.543    3.096   34.459   27.494    5.870   -0.002    0.641 
 9580  317.214    2.543    3.096   34.459   27.494    5.870   -0.002    0.641 
 9590  317.459    2.543    3.096   34.459   27.494    5.870   -0.002    0.641 
 9606  317.913    2.543    3.096   34.459   27.494    5.870   -0.002    0.641 
 9617  318.267    2.543    3.096   34.460   27.494    5.870   -0.002    0.641 
 9623  318.457    2.543    3.096   34.460   27.494    5.870   -0.002    0.641 
 9631  318.755    2.543    3.096   34.460   27.494    5.870   -0.002    0.641 
 9638  319.081    2.543    3.097   34.460   27.494    5.870   -0.002    0.641 
 9659  320.238    2.543    3.097   34.460   27.495    5.870   -0.003    0.641 
 9664  320.541    2.543    3.097   34.460   27.495    5.870   -0.003    0.641 
 9670  320.935    2.543    3.097   34.460   27.495    5.870   -0.003    0.641 
 9676  321.329    2.543    3.097   34.460   27.495    5.870   -0.003    0.641 
 9681  321.670    2.543    3.097   34.460   27.495    5.870   -0.003    0.642 
 9685  321.951    2.543    3.097   34.460   27.495    5.870   -0.003    0.642 
 9688  322.175    2.544    3.097   34.460   27.495    5.870   -0.003    0.642 
 9691  322.365    2.544    3.097   34.460   27.495    5.870   -0.003    0.642 
 9694  322.570    2.544    3.097   34.460   27.495    5.870   -0.003    0.642 
 9697  322.739    2.544    3.097   34.460   27.495    5.870   -0.003    0.642 
 9701  323.002    2.544    3.097   34.461   27.495    5.870   -0.003    0.642 
 9727  324.073    2.546    3.097   34.461   27.495    5.870   -0.003    0.642 
 9832  325.033    2.546    3.097   34.461   27.495    5.870   -0.003    0.642 
 9840  325.389    2.546    3.097   34.461   27.495    5.870   -0.003    0.642 
 9846  325.728    2.546    3.097   34.461   27.495    5.870   -0.003    0.643 
 9850  325.935    2.546    3.097   34.461   27.495    5.870   -0.003    0.643 
 9856  326.291    2.547    3.097   34.461   27.495    5.869   -0.003    0.643 
 9860  326.592    2.547    3.097   34.461   27.495    5.869   -0.003    0.643 
 9864  326.799    2.547    3.097   34.461   27.495    5.869   -0.003    0.643 
 9870  327.193    2.547    3.097   34.461   27.495    5.869   -0.002    0.643 
 9879  327.703    2.547    3.097   34.461   27.495    5.869   -0.002    0.643 
 9886  328.002    2.547    3.097   34.461   27.495    5.869   -0.002    0.643 
 9922  328.754    2.547    3.097   34.461   27.495    5.869   -0.002    0.643 
 9948  329.131    2.547    3.097   34.462   27.496    5.869   -0.002    0.644 
 9955  329.333    2.547    3.097   34.462   27.496    5.869   -0.002    0.643 
 9966  329.709    2.547    3.097   34.462   27.496    5.869   -0.002    0.644 
 9971  329.936    2.547    3.097   34.462   27.496    5.869   -0.002    0.644 
 9981  330.477    2.548    3.098   34.462   27.496    5.869   -0.002    0.644 
 9988  330.858    2.548    3.098   34.462   27.496    5.869   -0.002    0.644 
 9994  331.255    2.548    3.098   34.462   27.496    5.869   -0.002    0.644 
 9997  331.477    2.548    3.098   34.462   27.496    5.870   -0.002    0.644 
10000  331.682    2.548    3.098   34.462   27.496    5.871   -0.002    0.644 
10008  332.190    2.548    3.098   34.462   27.496    5.871   -0.002    0.645 
10014  332.640    2.548    3.098   34.462   27.496    5.872   -0.002    0.645 
10018  332.945    2.548    3.098   34.462   27.496    5.872   -0.002    0.645 
10022  333.168    2.548    3.098   34.462   27.496    5.872   -0.002    0.645 
10028  333.491    2.548    3.098   34.462   27.496    5.872   -0.002    0.645 
10041  334.219    2.548    3.098   34.462   27.496    5.873   -0.002    0.645 
10050  334.575    2.548    3.098   34.462   27.496    5.873   -0.002    0.645 
10067  334.992    2.548    3.098   34.462   27.496    5.874   -0.002    0.645 
10093  335.390    2.548    3.098   34.462   27.496    5.874   -0.002    0.645 
10121  335.910    2.548    3.098   34.462   27.496    5.874   -0.002    0.645 
10141  336.537    2.548    3.098   34.462   27.496    5.874   -0.002    0.645 
10149  336.825    2.547    3.098   34.462   27.496    5.874   -0.002    0.645 
10164  337.426    2.547    3.098   34.462   27.496    5.874   -0.002    0.645 
10172  337.752    2.547    3.098   34.462   27.496    5.874   -0.002    0.645 
10181  338.103    2.547    3.098   34.462   27.496    5.874   -0.002    0.645 
10191  338.391    2.547    3.098   34.462   27.496    5.874   -0.002    0.645 
10206  338.810    2.547    3.098   34.462   27.496    5.874   -0.002    0.645 
10211  338.929    2.547    3.098   34.462   27.496    5.873   -0.001    0.645 
10227  339.166    2.547    3.098   34.462   27.496    5.872   -0.001    0.645 
10250  339.474    2.547    3.098   34.462   27.496    5.872   -0.001    0.645 
10267  339.724    2.547    3.098   34.462   27.496    5.871   -0.001    0.645 
10281  340.062    2.547    3.098   34.462   27.496    5.871   -0.001    0.645 
10284  340.174    2.547    3.098   34.462   27.496    5.871   -0.001    0.645 
10289  340.345    2.547    3.098   34.462   27.496    5.870   -0.001    0.645 
10297  340.656    2.547    3.098   34.462   27.496    5.870   -0.001    0.645 
10303  340.929    2.547    3.098   34.462   27.496    5.870   -0.001    0.645 
10311  341.371    2.547    3.098   34.462   27.496    5.870   -0.001    0.646 
10315  341.588    2.547    3.098   34.462   27.496    5.870   -0.001    0.647 
10318  341.755    2.547    3.098   34.462   27.496    5.870   -0.001    0.647 
10321  341.962    2.547    3.098   34.462   27.496    5.870   -0.001    0.647 
10324  342.132    2.547    3.098   34.462   27.496    5.870   -0.001    0.648 
10327  342.336    2.547    3.098   34.462   27.496    5.870   -0.001    0.648 
10330  342.543    2.548    3.098   34.462   27.496    5.870   -0.001    0.648 
10333  342.733    2.548    3.098   34.462   27.496    5.870   -0.001    0.647 
10336  342.940    2.548    3.098   34.463   27.496    5.870   -0.001    0.648 
10339  343.147    2.548    3.098   34.463   27.496    5.870   -0.001    0.648 
10342  343.327    2.548    3.098   34.463   27.496    5.870   -0.001    0.648 
10347  343.708    2.548    3.098   34.463   27.496    5.870   -0.001    0.648 
10350  343.890    2.548    3.098   34.463   27.496    5.870   -0.001    0.648 
10355  344.236    2.549    3.098   34.463   27.496    5.870   -0.001    0.648 
10358  344.416    2.549    3.098   34.463   27.496    5.870   -0.001    0.648 
10361  344.633    2.549    3.098   34.463   27.496    5.870   -0.002    0.647 
10364  344.782    2.550    3.098   34.463   27.496    5.870   -0.002    0.647 
10369  345.083    2.550    3.098   34.462   27.495    5.870   -0.002    0.647 
10373  345.328    2.550    3.098   34.463   27.496    5.870   -0.002    0.647 
10378  345.570    2.550    3.099   34.462   27.495    5.870   -0.002    0.647 
10386  345.912    2.550    3.099   34.463   27.496    5.870   -0.002    0.647 
10391  346.119    2.550    3.099   34.463   27.496    5.870   -0.002    0.647 
10394  346.205    2.550    3.099   34.463   27.496    5.870   -0.001    0.647 
10398  346.323    2.550    3.099   34.463   27.496    5.870   -0.001    0.647 
10403  346.465    2.550    3.099   34.463   27.496    5.870   -0.001    0.647 
10409  346.626    2.551    3.099   34.463   27.496    5.870   -0.001    0.647 
10413  346.730    2.551    3.099   34.463   27.496    5.870   -0.001    0.647 
