NAFC_Y2K_HEADER
39673020  50 34.48 -052  8.29 2006-06-15 04:00 0209 S0281 020 V   stn 20       1
39673020 001163  8.00 A 08 #PTCSMFL------------            D 000 0000 0208 000 4
39673020 9 20 08 81 1010.5 007.5 007.5 04 01 20 07 02                          8
-- CHANNEL STATS -->
# span     scan =   3213.000,  5332.000
# span     pres =      0.378,   208.672
# span     temp =     -0.969,     6.062
# span     cond =      2.694,     3.242
# span      sal =     32.727,    34.465
# span     sigt =     25.749,    27.473
# span     flor =      0.324,     1.277
# span      par =      0.932,     1.359
-- END --
-- HISTORY --> Thu Jun 22 14:23:16 2006
>SELECT_PROBE S
>READ # (DP) T C L F scan pres temp cond par flor
>STABILIZE_RESTRICT USING= pres 10.0 5 
>RESTRICT USING= pres 0.0 2000.0
>RESTRICT USING= cond 2.0 5.0
>RESTRICT USING= temp -2.0 20.0
>RESTRICT USING= scan 500.0 30000.0
>MEDIANFILTER pres 21 1
>MEDIANFILTER temp 21 1
>MEDIANFILTER cond 21 1
>MEDIANFILTER flor 21 1
>MEDIANFILTER par 21 1
>SELECT_DN USING= pres
>SALINITY PRESSURE=pres CONDUCTIVITY=cond TEMPERATURE=temp RESULT=sal
>RESTRICT USING= sal 29.0 36.0
>MEDIANFILTER sal 21 1
>SIGMAT SALINITY=sal TEMPERATURE=temp RESULT=sigt
>MEDIANFILTER sigt 21 1
>HISTORY_ON
>WRITEFILE .p???? scan pres temp cond sal sigt flor par
-- END --
 scan     pres     temp     cond      sal     sigt     flor      par 
-- DATA --
 3213    0.378    6.062    3.240   32.727   25.749    0.696    1.359 
 3222    0.551    6.061    3.240   32.728   25.750    0.766    1.286 
 3225    0.725    6.061    3.240   32.728   25.750    0.627    1.253 
 3226    0.899    6.061    3.240   32.728   25.750    0.650    1.253 
 3228    1.072    6.061    3.240   32.727   25.750    0.627    1.212 
 3229    1.246    6.061    3.240   32.727   25.750    0.627    1.208 
 3230    1.420    6.061    3.240   32.727   25.750    0.627    1.194 
 3232    1.593    6.061    3.240   32.727   25.750    0.627    1.194 
 3234    1.767    6.061    3.240   32.727   25.750    0.627    1.190 
 3235    1.941    6.061    3.240   32.727   25.750    0.627    1.190 
 3237    2.114    6.061    3.240   32.727   25.750    0.627    1.177 
 3238    2.288    6.061    3.240   32.727   25.750    0.627    1.177 
 3240    2.462    6.061    3.240   32.727   25.750    0.627    1.177 
 3242    2.635    6.061    3.240   32.727   25.750    0.627    1.173 
 3244    2.809    6.061    3.240   32.727   25.750    0.650    1.173 
 3246    2.982    6.060    3.240   32.727   25.750    0.650    1.160 
 3248    3.156    6.060    3.240   32.727   25.750    0.650    1.160 
 3249    3.330    6.060    3.240   32.727   25.750    0.650    1.160 
 3251    3.503    6.060    3.240   32.727   25.750    0.650    1.151 
 3253    3.677    6.060    3.240   32.727   25.750    0.627    1.151 
 3255    3.851    6.060    3.240   32.727   25.750    0.627    1.147 
 3257    4.024    6.060    3.240   32.727   25.750    0.627    1.143 
 3259    4.198    6.060    3.240   32.727   25.750    0.627    1.143 
 3260    4.372    6.060    3.240   32.728   25.750    0.627    1.143 
 3262    4.545    6.061    3.241   32.736   25.757    0.627    1.138 
 3264    4.719    6.061    3.241   32.736   25.757    0.627    1.138 
 3265    4.893    6.061    3.241   32.736   25.757    0.627    1.134 
 3266    5.066    6.061    3.241   32.736   25.757    0.627    1.134 
 3268    5.240    6.061    3.241   32.736   25.757    0.627    1.134 
 3269    5.414    6.061    3.241   32.736   25.757    0.627    1.134 
 3272    5.587    6.061    3.241   32.736   25.757    0.627    1.126 
 3273    5.761    6.061    3.241   32.736   25.757    0.627    1.126 
 3274    5.935    6.061    3.241   32.736   25.757    0.627    1.126 
 3276    6.108    6.061    3.241   32.736   25.757    0.627    1.126 
 3278    6.282    6.061    3.241   32.736   25.757    0.627    1.130 
 3279    6.456    6.061    3.241   32.736   25.757    0.650    1.130 
 3281    6.629    6.061    3.241   32.736   25.757    0.650    1.130 
 3283    6.803    6.061    3.241   32.736   25.757    0.650    1.130 
 3284    6.977    6.061    3.241   32.736   25.757    0.650    1.126 
 3286    7.150    6.061    3.241   32.736   25.757    0.650    1.126 
 3287    7.324    6.061    3.241   32.736   25.757    0.650    1.126 
 3288    7.497    6.061    3.241   32.736   25.757    0.650    1.122 
 3290    7.671    6.061    3.241   32.736   25.757    0.650    1.122 
 3292    7.845    6.061    3.241   32.736   25.757    0.650    1.109 
 3293    8.018    6.061    3.241   32.736   25.757    0.650    1.109 
 3295    8.192    6.061    3.241   32.736   25.757    0.650    1.105 
 3297    8.539    6.061    3.241   32.736   25.757    0.650    1.105 
 3300    8.713    6.060    3.241   32.736   25.757    0.650    1.105 
 3303    8.887    6.060    3.241   32.736   25.757    0.650    1.101 
 3306    9.060    6.059    3.241   32.737   25.757    0.650    1.101 
 3307    9.234    6.059    3.241   32.737   25.757    0.650    1.101 
 3311    9.408    6.058    3.241   32.737   25.758    0.650    1.109 
 3314    9.581    6.057    3.241   32.738   25.759    0.650    1.113 
 3316    9.755    6.055    3.241   32.740   25.761    0.650    1.113 
 3319    9.929    6.055    3.241   32.740   25.761    0.650    1.109 
 3320   10.102    6.054    3.241   32.741   25.761    0.650    1.105 
 3323   10.276    6.054    3.242   32.752   25.770    0.627    1.105 
 3324   10.450    6.054    3.242   32.752   25.770    0.627    1.109 
 3326   10.623    6.053    3.242   32.752   25.770    0.603    1.109 
 3328   10.797    6.053    3.242   32.752   25.770    0.603    1.109 
 3330   10.971    6.053    3.242   32.753   25.771    0.603    1.109 
 3331   11.144    6.053    3.242   32.753   25.771    0.603    1.109 
 3333   11.491    6.052    3.242   32.753   25.771    0.603    1.109 
 3336   11.665    6.050    3.242   32.753   25.771    0.603    1.109 
 3337   11.839    6.050    3.242   32.753   25.771    0.603    1.113 
 3338   12.012    6.050    3.242   32.753   25.771    0.603    1.113 
 3340   12.186    6.050    3.242   32.753   25.772    0.603    1.113 
 3342   12.360    6.042    3.241   32.754   25.773    0.603    1.117 
 3343   12.533    6.042    3.241   32.754   25.773    0.603    1.117 
 3345   12.707    6.039    3.241   32.755   25.774    0.603    1.117 
 3346   12.881    6.039    3.241   32.755   25.774    0.603    1.117 
 3348   13.054    6.036    3.241   32.755   25.775    0.603    1.117 
 3350   13.228    6.036    3.240   32.755   25.775    0.603    1.113 
 3352   13.402    6.029    3.240   32.756   25.776    0.603    1.113 
 3354   13.575    6.025    3.240   32.757   25.778    0.603    1.109 
 3356   13.749    6.024    3.240   32.757   25.778    0.603    1.113 
 3357   13.923    6.024    3.240   32.757   25.778    0.603    1.113 
 3359   14.096    6.016    3.240   32.762   25.783    0.603    1.113 
 3360   14.270    6.005    3.239   32.764   25.786    0.580    1.113 
 3362   14.443    5.995    3.238   32.765   25.787    0.580    1.109 
 3363   14.617    5.989    3.238   32.767   25.790    0.580    1.109 
 3364   14.791    5.970    3.237   32.768   25.793    0.580    1.109 
 3366   14.964    5.962    3.236   32.772   25.797    0.580    1.113 
 3367   15.138    5.950    3.235   32.772   25.799    0.580    1.109 
 3369   15.312    5.943    3.234   32.772   25.800    0.580    1.105 
 3371   15.485    5.924    3.233   32.773   25.802    0.580    1.105 
 3372   15.659    5.914    3.232   32.774   25.805    0.580    1.105 
 3374   15.833    5.903    3.231   32.774   25.806    0.580    1.105 
 3375   16.006    5.889    3.230   32.775   25.809    0.603    1.101 
 3377   16.180    5.838    3.226   32.779   25.818    0.603    1.101 
 3379   16.354    5.780    3.222   32.788   25.832    0.603    1.101 
 3381   16.527    5.742    3.219   32.790   25.838    0.603    1.101 
 3383   16.701    5.735    3.218   32.793   25.841    0.603    1.105 
 3386   16.875    5.669    3.214   32.807   25.860    0.627    1.101 
 3388   17.048    5.596    3.208   32.811   25.872    0.627    1.101 
 3391   17.222    5.498    3.201   32.812   25.885    0.627    1.097 
 3392   17.395    5.491    3.200   32.815   25.888    0.627    1.097 
 3395   17.569    5.470    3.198   32.818   25.892    0.603    1.093 
 3398   17.743    5.466    3.197   32.820   25.894    0.603    1.093 
 3399   17.916    5.463    3.197   32.821   25.895    0.603    1.093 
 3401   18.090    5.452    3.197   32.821   25.896    0.603    1.093 
 3402   18.264    5.439    3.196   32.822   25.899    0.603    1.093 
 3405   18.437    5.434    3.195   32.822   25.900    0.603    1.093 
 3406   18.611    5.434    3.195   32.823   25.900    0.603    1.093 
 3407   18.785    5.432    3.195   32.826   25.903    0.603    1.093 
 3409   18.958    5.413    3.194   32.826   25.905    0.603    1.093 
 3410   19.132    5.413    3.193   32.826   25.905    0.603    1.093 
 3411   19.306    5.408    3.193   32.826   25.906    0.603    1.093 
 3413   19.479    5.405    3.193   32.827   25.907    0.580    1.093 
 3414   19.653    5.405    3.193   32.827   25.907    0.603    1.093 
 3415   19.826    5.403    3.193   32.830   25.909    0.603    1.089 
 3417   20.000    5.199    3.185   32.892   25.982    0.603    1.089 
 3418   20.174    4.993    3.169   32.892   26.005    0.603    1.089 
 3420   20.347    4.653    3.138   32.892   26.042    0.603    1.085 
 3421   20.521    4.623    3.133   32.892   26.045    0.603    1.081 
 3422   20.695    4.614    3.131   32.892   26.046    0.603    1.081 
 3424   20.868    4.614    3.131   32.892   26.046    0.580    1.081 
 3426   21.042    4.614    3.131   32.892   26.047    0.580    1.081 
 3427   21.216    4.614    3.131   32.903   26.055    0.580    1.081 
 3429   21.389    4.614    3.131   32.903   26.055    0.580    1.081 
 3430   21.563    4.614    3.131   32.903   26.055    0.580    1.081 
 3431   21.737    4.614    3.131   32.903   26.055    0.580    1.081 
 3434   21.910    4.614    3.132   32.903   26.055    0.603    1.081 
 3435   22.084    4.614    3.132   32.903   26.055    0.603    1.081 
 3437   22.257    4.614    3.132   32.903   26.055    0.603    1.081 
 3439   22.431    4.614    3.132   32.903   26.055    0.603    1.077 
 3440   22.605    4.614    3.132   32.903   26.055    0.603    1.077 
 3442   22.778    4.614    3.132   32.903   26.055    0.650    1.081 
 3444   22.952    4.575    3.131   32.930   26.081    0.673    1.081 
 3446   23.126    4.570    3.131   32.935   26.085    0.673    1.081 
 3449   23.299    4.526    3.130   32.962   26.112    0.673    1.085 
 3450   23.473    4.507    3.128   32.963   26.114    0.673    1.085 
 3451   23.647    4.431    3.126   32.963   26.122    0.673    1.085 
 3453   23.820    4.356    3.116   32.967   26.133    0.696    1.085 
 3455   23.994    4.331    3.113   32.967   26.135    0.696    1.085 
 3457   24.168    4.287    3.111   32.967   26.141    0.696    1.085 
 3459   24.341    4.130    3.098   32.972   26.160    0.696    1.089 
 3462   24.515    4.068    3.091   32.973   26.167    0.696    1.089 
 3464   24.688    4.014    3.086   32.973   26.172    0.673    1.085 
 3465   24.862    4.005    3.086   32.973   26.173    0.673    1.085 
 3467   25.036    3.957    3.082   32.973   26.178    0.673    1.085 
 3468   25.209    3.945    3.081   32.973   26.180    0.673    1.085 
 3470   25.383    3.933    3.080   32.973   26.181    0.673    1.085 
 3472   25.557    3.914    3.079   32.973   26.183    0.650    1.081 
 3473   25.730    3.911    3.077   32.973   26.183    0.650    1.085 
 3475   25.904    3.751    3.067   32.973   26.199    0.650    1.085 
 3477   26.251    3.650    3.058   32.973   26.208    0.650    1.085 
 3479   26.425    3.578    3.051   32.973   26.215    0.650    1.085 
 3480   26.598    3.548    3.048   32.973   26.217    0.650    1.085 
 3481   26.772    3.515    3.046   32.973   26.221    0.627    1.085 
 3483   26.946    3.496    3.043   32.973   26.222    0.627    1.085 
 3484   27.119    3.493    3.043   32.973   26.222    0.627    1.085 
 3486   27.293    3.488    3.042   32.972   26.222    0.627    1.085 
 3488   27.467    3.477    3.042   32.972   26.222    0.627    1.085 
 3489   27.640    3.477    3.041   32.971   26.222    0.627    1.085 
 3490   27.814    3.474    3.041   32.972   26.222    0.627    1.085 
 3492   27.988    3.474    3.041   32.972   26.222    0.627    1.085 
 3493   28.161    3.474    3.041   32.972   26.223    0.627    1.085 
 3495   28.335    3.477    3.041   32.972   26.223    0.627    1.085 
 3497   28.508    3.490    3.042   32.972   26.223    0.627    1.085 
 3498   28.682    3.493    3.042   32.972   26.223    0.627    1.085 
 3499   28.856    3.496    3.043   32.972   26.224    0.627    1.085 
 3502   29.029    3.537    3.046   32.972   26.224    0.603    1.085 
 3503   29.203    3.553    3.049   32.973   26.224    0.627    1.081 
 3505   29.377    3.605    3.052   32.973   26.224    0.627    1.081 
 3507   29.550    3.684    3.059   32.986   26.224    0.603    1.081 
 3508   29.724    3.693    3.065   33.035   26.253    0.603    1.081 
 3509   29.898    3.693    3.066   33.046   26.262    0.603    1.081 
 3511   30.071    3.693    3.066   33.046   26.262    0.603    1.081 
 3513   30.245    3.693    3.066   33.047   26.262    0.603    1.081 
 3514   30.418    3.693    3.066   33.047   26.263    0.603    1.081 
 3516   30.592    3.693    3.066   33.047   26.263    0.603    1.081 
 3518   30.766    3.693    3.066   33.047   26.263    0.603    1.081 
 3519   30.939    3.670    3.066   33.070   26.283    0.603    1.081 
 3522   31.113    3.572    3.058   33.074   26.296    0.603    1.081 
 3523   31.287    3.537    3.056   33.084   26.307    0.603    1.081 
 3525   31.460    3.483    3.052   33.085   26.313    0.603    1.081 
 3527   31.634    3.476    3.051   33.087   26.315    0.603    1.077 
 3528   31.808    3.475    3.051   33.088   26.316    0.603    1.073 
 3530   31.981    3.448    3.049   33.091   26.321    0.603    1.073 
 3532   32.328    3.432    3.047   33.092   26.323    0.603    1.073 
 3535   32.502    3.424    3.047   33.092   26.324    0.603    1.073 
 3538   32.849    3.421    3.047   33.092   26.324    0.603    1.077 
 3540   33.023    3.418    3.047   33.093   26.325    0.603    1.077 
 3541   33.197    3.413    3.046   33.095   26.327    0.603    1.077 
 3543   33.370    3.411    3.046   33.098   26.330    0.603    1.077 
 3544   33.544    3.403    3.046   33.099   26.331    0.603    1.077 
 3546   33.718    3.283    3.041   33.101   26.344    0.603    1.077 
 3547   33.891    3.088    3.028   33.116   26.374    0.603    1.077 
 3548   34.065    2.972    3.014   33.116   26.384    0.627    1.077 
 3550   34.238    2.517    2.982   33.118   26.424    0.650    1.077 
 3552   34.412    2.477    2.969   33.119   26.427    0.673    1.077 
 3553   34.586    2.475    2.969   33.120   26.428    0.673    1.077 
 3554   34.759    2.461    2.969   33.120   26.430    0.673    1.077 
 3556   34.933    2.358    2.962   33.131   26.447    0.696    1.077 
 3557   35.107    2.339    2.962   33.133   26.450    0.719    1.077 
 3559   35.280    2.315    2.954   33.135   26.453    0.766    1.073 
 3560   35.454    2.272    2.952   33.140   26.461    0.766    1.073 
 3563   35.627    2.199    2.946   33.140   26.467    0.789    1.073 
 3566   35.801    2.121    2.939   33.135   26.468    0.859    1.073 
 3567   35.975    2.092    2.937   33.133   26.469    0.859    1.073 
 3568   36.148    2.042    2.934   33.131   26.471    0.928    1.073 
 3571   36.322    1.786    2.913   33.131   26.490    0.998    1.077 
 3572   36.496    1.723    2.907   33.131   26.494    1.045    1.077 
 3575   36.669    1.352    2.883   33.128   26.517    1.138    1.077 
 3576   36.843    1.227    2.868   33.123   26.522    1.138    1.077 
 3578   37.017    1.078    2.855   33.120   26.529    1.207    1.077 
 3579   37.190    0.955    2.847   33.120   26.537    1.254    1.077 
 3582   37.364    0.647    2.820   33.120   26.551    1.254    1.077 
 3584   37.537    0.598    2.813   33.120   26.551    1.277    1.073 
 3585   37.711    0.509    2.806   33.120   26.551    1.277    1.077 
 3587   37.885    0.474    2.801   33.105   26.551    1.254    1.073 
 3588   38.058    0.474    2.801   33.104   26.551    1.254    1.073 
 3590   38.232    0.474    2.801   33.104   26.551    1.254    1.073 
 3591   38.406    0.474    2.801   33.104   26.551    1.184    1.073 
 3593   38.579    0.474    2.801   33.104   26.551    1.138    1.073 
 3594   38.753    0.474    2.801   33.104   26.551    1.091    1.069 
 3595   38.926    0.474    2.801   33.104   26.551    1.091    1.065 
 3596   39.100    0.474    2.801   33.104   26.551    1.068    1.065 
 3597   39.274    0.474    2.801   33.104   26.551    1.045    1.069 
 3598   39.447    0.493    2.803   33.104   26.551    1.021    1.069 
 3600   39.795    0.493    2.803   33.104   26.551    0.928    1.069 
 3602   39.968    0.493    2.803   33.104   26.551    0.882    1.069 
 3603   40.142    0.493    2.803   33.104   26.551    0.882    1.069 
 3604   40.315    0.493    2.803   33.104   26.551    0.882    1.073 
 3605   40.489    0.493    2.803   33.104   26.551    0.882    1.069 
 3607   40.663    0.493    2.803   33.104   26.551    0.859    1.069 
 3608   40.836    0.493    2.803   33.105   26.551    0.812    1.065 
 3609   41.010    0.461    2.803   33.118   26.563    0.812    1.065 
 3610   41.184    0.431    2.799   33.118   26.565    0.812    1.065 
 3612   41.357    0.431    2.799   33.118   26.565    0.812    1.065 
 3614   41.704    0.431    2.799   33.118   26.565    0.812    1.061 
 3616   41.878    0.431    2.799   33.118   26.565    0.789    1.061 
 3618   42.052    0.431    2.799   33.120   26.566    0.766    1.057 
 3621   42.225    0.443    2.801   33.121   26.566    0.789    1.057 
 3622   42.399    0.445    2.801   33.121   26.567    0.789    1.057 
 3625   42.573    0.453    2.801   33.121   26.567    0.719    1.057 
 3627   42.746    0.455    2.802   33.122   26.567    0.719    1.057 
 3630   42.920    0.458    2.802   33.122   26.567    0.719    1.061 
 3634   43.093    0.462    2.802   33.122   26.567    0.719    1.065 
 3636   43.267    0.463    2.802   33.123   26.567    0.696    1.065 
 3638   43.441    0.463    2.802   33.125   26.569    0.673    1.065 
 3640   43.614    0.463    2.802   33.126   26.570    0.673    1.065 
 3643   43.788    0.463    2.802   33.127   26.571    0.673    1.065 
 3645   43.962    0.463    2.802   33.128   26.571    0.673    1.065 
 3647   44.135    0.457    2.802   33.128   26.571    0.627    1.065 
 3648   44.309    0.447    2.801   33.128   26.572    0.627    1.065 
 3650   44.482    0.425    2.800   33.130   26.575    0.603    1.065 
 3652   44.656    0.415    2.799   33.130   26.576    0.603    1.065 
 3653   44.830    0.415    2.799   33.130   26.576    0.603    1.065 
 3654   45.003    0.415    2.799   33.131   26.577    0.603    1.065 
 3656   45.177    0.414    2.799   33.133   26.578    0.603    1.061 
 3658   45.351    0.409    2.798   33.133   26.578    0.603    1.065 
 3659   45.524    0.405    2.798   33.133   26.579    0.603    1.065 
 3660   45.698    0.405    2.798   33.134   26.579    0.603    1.065 
 3661   45.871    0.404    2.798   33.134   26.579    0.603    1.065 
 3662   46.045    0.401    2.798   33.134   26.580    0.603    1.065 
 3663   46.219    0.401    2.798   33.134   26.580    0.603    1.065 
 3665   46.392    0.401    2.798   33.134   26.580    0.603    1.065 
 3666   46.740    0.401    2.798   33.134   26.580    0.603    1.061 
 3668   46.913    0.395    2.798   33.136   26.581    0.603    1.061 
 3669   47.087    0.393    2.798   33.139   26.584    0.603    1.061 
 3670   47.260    0.391    2.798   33.140   26.585    0.603    1.061 
 3671   47.434    0.387    2.797   33.142   26.587    0.603    1.061 
 3672   47.608    0.384    2.797   33.142   26.587    0.603    1.061 
 3673   47.781    0.381    2.797   33.143   26.588    0.603    1.061 
 3674   47.955    0.378    2.797   33.144   26.589    0.603    1.061 
 3676   48.129    0.372    2.797   33.145   26.590    0.603    1.061 
 3677   48.302    0.368    2.796   33.145   26.590    0.603    1.061 
 3678   48.476    0.360    2.796   33.149   26.594    0.603    1.061 
 3679   48.649    0.354    2.795   33.151   26.596    0.627    1.061 
 3681   48.823    0.337    2.794   33.151   26.597    0.627    1.061 
 3682   48.997    0.329    2.794   33.151   26.597    0.627    1.061 
 3684   49.170    0.290    2.792   33.152   26.600    0.627    1.061 
 3686   49.344    0.222    2.786   33.152   26.603    0.627    1.061 
 3688   49.518    0.188    2.783   33.152   26.606    0.603    1.061 
 3691   49.691    0.163    2.780   33.153   26.607    0.603    1.061 
 3695   49.865    0.146    2.779   33.153   26.608    0.627    1.061 
 3699   50.038    0.127    2.777   33.153   26.609    0.603    1.061 
 3702   50.212    0.104    2.776   33.153   26.610    0.603    1.057 
 3706   50.386    0.104    2.775   33.153   26.610    0.603    1.057 
 3708   50.559    0.103    2.775   33.153   26.610    0.627    1.057 
 3710   50.733    0.103    2.775   33.153   26.610    0.603    1.057 
 3712   50.906    0.102    2.775   33.153   26.610    0.603    1.057 
 3713   51.080    0.102    2.775   33.153   26.610    0.580    1.057 
 3715   51.254    0.099    2.775   33.153   26.610    0.580    1.057 
 3716   51.427    0.099    2.775   33.152   26.610    0.580    1.057 
 3718   51.601    0.096    2.774   33.152   26.610    0.557    1.057 
 3719   51.775    0.092    2.774   33.152   26.610    0.580    1.057 
 3720   51.948    0.091    2.774   33.153   26.610    0.580    1.057 
 3722   52.122    0.090    2.774   33.153   26.611    0.557    1.057 
 3723   52.295    0.087    2.774   33.153   26.611    0.557    1.057 
 3724   52.469    0.078    2.773   33.153   26.611    0.557    1.057 
 3726   52.816    0.074    2.773   33.155   26.613    0.510    1.061 
 3728   52.990    0.070    2.772   33.156   26.614    0.510    1.065 
 3729   53.164    0.064    2.772   33.156   26.614    0.487    1.065 
 3731   53.337    0.053    2.771   33.156   26.615    0.510    1.065 
 3732   53.511    0.049    2.771   33.156   26.615    0.510    1.065 
 3733   53.684    0.030    2.770   33.163   26.622    0.487    1.065 
 3734   53.858    0.001    2.769   33.181   26.638    0.487    1.065 
 3736   54.032   -0.065    2.764   33.183   26.643    0.510    1.065 
 3737   54.205   -0.086    2.762   33.184   26.644    0.510    1.061 
 3738   54.552   -0.099    2.761   33.187   26.647    0.510    1.061 
 3740   54.726   -0.140    2.758   33.188   26.650    0.510    1.065 
 3742   54.900   -0.260    2.751   33.204   26.669    0.510    1.065 
 3743   55.073   -0.327    2.746   33.204   26.672    0.534    1.061 
 3744   55.247   -0.398    2.741   33.208   26.678    0.534    1.057 
 3745   55.421   -0.448    2.736   33.208   26.680    0.510    1.057 
 3747   55.594   -0.460    2.733   33.210   26.682    0.534    1.057 
 3748   55.768   -0.464    2.733   33.210   26.683    0.534    1.057 
 3750   55.941   -0.504    2.730   33.212   26.685    0.534    1.057 
 3752   56.115   -0.534    2.727   33.214   26.689    0.534    1.053 
 3754   56.289   -0.580    2.724   33.214   26.691    0.534    1.053 
 3756   56.462   -0.613    2.722   33.217   26.694    0.534    1.053 
 3758   56.636   -0.625    2.720   33.219   26.696    0.510    1.053 
 3760   56.809   -0.634    2.720   33.219   26.696    0.510    1.053 
 3762   56.983   -0.638    2.719   33.219   26.696    0.510    1.053 
 3765   57.157   -0.643    2.718   33.219   26.697    0.510    1.053 
 3767   57.330   -0.654    2.718   33.219   26.697    0.487    1.053 
 3771   57.504   -0.693    2.715   33.220   26.699    0.510    1.053 
 3773   57.678   -0.750    2.712   33.224   26.705    0.487    1.053 
 3776   57.851   -0.886    2.701   33.224   26.710    0.510    1.053 
 3779   58.025   -0.913    2.698   33.226   26.713    0.487    1.053 
 3780   58.198   -0.916    2.697   33.227   26.714    0.487    1.053 
 3782   58.372   -0.921    2.697   33.228   26.715    0.464    1.053 
 3784   58.546   -0.924    2.697   33.229   26.715    0.464    1.049 
 3785   58.719   -0.925    2.697   33.229   26.715    0.487    1.049 
 3787   58.893   -0.945    2.696   33.229   26.716    0.464    1.053 
 3788   59.066   -0.959    2.695   33.230   26.717    0.487    1.053 
 3789   59.240   -0.960    2.694   33.234   26.721    0.487    1.053 
 3791   59.414   -0.969    2.694   33.235   26.721    0.487    1.049 
 3792   59.587   -0.969    2.694   33.235   26.721    0.464    1.049 
 3794   59.761   -0.969    2.694   33.234   26.721    0.464    1.049 
 3795   59.935   -0.969    2.694   33.235   26.722    0.464    1.049 
 3796   60.108   -0.969    2.694   33.235   26.722    0.464    1.049 
 3798   60.455   -0.969    2.694   33.235   26.722    0.464    1.046 
 3800   60.629   -0.962    2.694   33.236   26.722    0.487    1.046 
 3801   60.803   -0.959    2.694   33.236   26.722    0.487    1.042 
 3802   60.976   -0.952    2.695   33.236   26.722    0.487    1.038 
 3803   61.150   -0.944    2.696   33.236   26.722    0.487    1.038 
 3806   61.323   -0.941    2.697   33.236   26.722    0.464    1.038 
 3807   61.497   -0.935    2.697   33.238   26.722    0.464    1.038 
 3808   61.671   -0.908    2.698   33.238   26.723    0.464    1.038 
 3809   61.844   -0.888    2.701   33.240   26.723    0.464    1.038 
 3811   62.018   -0.870    2.703   33.244   26.726    0.464    1.038 
 3812   62.191   -0.862    2.703   33.247   26.728    0.464    1.038 
 3814   62.365   -0.855    2.706   33.257   26.736    0.464    1.046 
 3815   62.539   -0.851    2.706   33.262   26.739    0.487    1.046 
 3817   62.712   -0.847    2.706   33.266   26.743    0.464    1.046 
 3818   62.886   -0.843    2.706   33.268   26.744    0.464    1.046 
 3819   63.060   -0.842    2.707   33.270   26.745    0.464    1.046 
 3822   63.233   -0.830    2.708   33.270   26.745    0.464    1.049 
 3823   63.407   -0.829    2.708   33.271   26.746    0.464    1.049 
 3824   63.580   -0.828    2.709   33.281   26.754    0.441    1.049 
 3826   63.754   -0.828    2.710   33.282   26.755    0.464    1.049 
 3828   63.928   -0.820    2.710   33.285   26.757    0.441    1.046 
 3830   64.101   -0.810    2.711   33.288   26.759    0.441    1.042 
 3831   64.275   -0.805    2.711   33.288   26.759    0.441    1.042 
 3833   64.448   -0.789    2.713   33.291   26.761    0.441    1.042 
 3835   64.622   -0.774    2.714   33.294   26.763    0.441    1.038 
 3837   64.796   -0.758    2.716   33.295   26.763    0.417    1.038 
 3840   64.969   -0.744    2.717   33.297   26.764    0.417    1.030 
 3842   65.143   -0.740    2.718   33.298   26.765    0.417    1.030 
 3843   65.316   -0.740    2.718   33.302   26.768    0.417    1.030 
 3847   65.490   -0.740    2.718   33.304   26.769    0.417    1.030 
 3848   65.664   -0.738    2.718   33.304   26.769    0.417    1.030 
 3851   65.837   -0.735    2.718   33.304   26.769    0.417    1.030 
 3854   66.011   -0.735    2.719   33.306   26.770    0.417    1.034 
 3855   66.184   -0.735    2.719   33.312   26.774    0.417    1.034 
 3858   66.358   -0.735    2.719   33.312   26.775    0.417    1.038 
 3859   66.532   -0.693    2.722   33.312   26.775    0.417    1.038 
 3861   66.705   -0.660    2.726   33.319   26.778    0.417    1.042 
 3862   66.879   -0.656    2.726   33.323   26.781    0.417    1.042 
 3865   67.052   -0.652    2.727   33.327   26.785    0.417    1.042 
 3867   67.226   -0.647    2.728   33.335   26.791    0.417    1.038 
 3869   67.400   -0.637    2.729   33.338   26.792    0.394    1.042 
 3870   67.573   -0.629    2.730   33.342   26.796    0.371    1.042 
 3872   67.747   -0.615    2.732   33.348   26.800    0.394    1.038 
 3873   67.921   -0.610    2.732   33.354   26.804    0.417    1.038 
 3875   68.094   -0.603    2.733   33.354   26.804    0.394    1.038 
 3876   68.268   -0.599    2.734   33.362   26.811    0.394    1.038 
 3877   68.441   -0.597    2.735   33.366   26.813    0.394    1.038 
 3879   68.615   -0.590    2.736   33.368   26.815    0.394    1.034 
 3880   68.789   -0.589    2.736   33.368   26.815    0.417    1.034 
 3881   68.962   -0.586    2.736   33.369   26.816    0.394    1.034 
 3883   69.136   -0.580    2.736   33.371   26.817    0.417    1.034 
 3884   69.309   -0.578    2.736   33.372   26.818    0.417    1.034 
 3885   69.483   -0.576    2.737   33.372   26.818    0.417    1.034 
 3886   69.657   -0.573    2.737   33.373   26.819    0.417    1.034 
 3887   69.830   -0.572    2.737   33.374   26.819    0.417    1.038 
 3888   70.004   -0.572    2.737   33.375   26.820    0.417    1.038 
 3889   70.177   -0.569    2.737   33.377   26.821    0.417    1.034 
 3890   70.351   -0.569    2.737   33.378   26.822    0.417    1.034 
 3891   70.525   -0.547    2.739   33.378   26.822    0.417    1.030 
 3892   70.698   -0.534    2.741   33.383   26.825    0.417    1.030 
 3893   70.872   -0.526    2.742   33.388   26.829    0.417    1.030 
 3894   71.045   -0.526    2.742   33.388   26.829    0.417    1.030 
 3895   71.219   -0.526    2.743   33.400   26.839    0.417    1.030 
 3896   71.393   -0.526    2.743   33.401   26.839    0.417    1.030 
 3897   71.566   -0.526    2.743   33.401   26.839    0.417    1.034 
 3898   71.740   -0.526    2.743   33.401   26.839    0.394    1.034 
 3899   71.913   -0.526    2.743   33.401   26.839    0.417    1.038 
 3901   72.087   -0.526    2.743   33.401   26.839    0.371    1.038 
 3902   72.261   -0.526    2.743   33.401   26.839    0.371    1.038 
 3904   72.434   -0.528    2.743   33.403   26.841    0.371    1.038 
 3906   72.608   -0.541    2.743   33.408   26.845    0.371    1.038 
 3907   72.781   -0.545    2.742   33.415   26.852    0.371    1.038 
 3909   72.955   -0.558    2.742   33.416   26.853    0.371    1.034 
 3913   73.129   -0.558    2.742   33.417   26.853    0.371    1.034 
 3916   73.302   -0.558    2.742   33.418   26.854    0.371    1.034 
 3920   73.476   -0.553    2.742   33.422   26.854    0.417    1.023 
 3924   73.649   -0.516    2.745   33.422   26.855    0.417    1.023 
 3928   73.823   -0.482    2.748   33.422   26.856    0.417    1.023 
 3930   73.997   -0.451    2.751   33.424   26.857    0.394    1.026 
 3933   74.170   -0.440    2.753   33.429   26.859    0.417    1.034 
 3935   74.344   -0.440    2.753   33.433   26.861    0.394    1.034 
 3937   74.517   -0.435    2.753   33.434   26.862    0.394    1.034 
 3939   74.691   -0.432    2.753   33.434   26.862    0.394    1.034 
 3941   74.865   -0.428    2.754   33.438   26.865    0.394    1.038 
 3943   75.038   -0.424    2.754   33.438   26.865    0.394    1.038 
 3945   75.385   -0.424    2.754   33.439   26.865    0.394    1.034 
 3948   75.559   -0.423    2.755   33.446   26.871    0.394    1.034 
 3949   75.733   -0.414    2.756   33.449   26.873    0.394    1.030 
 3950   75.906   -0.407    2.757   33.453   26.875    0.394    1.030 
 3952   76.080   -0.388    2.759   33.453   26.876    0.394    1.030 
 3953   76.253   -0.383    2.759   33.455   26.876    0.394    1.030 
 3954   76.427   -0.380    2.760   33.455   26.877    0.394    1.030 
 3956   76.601   -0.357    2.761   33.460   26.880    0.394    1.030 
 3957   76.774   -0.333    2.763   33.463   26.880    0.394    1.030 
 3959   76.948   -0.282    2.768   33.465   26.881    0.417    1.030 
 3960   77.295   -0.273    2.769   33.467   26.881    0.417    1.030 
 3963   77.469   -0.260    2.771   33.477   26.889    0.417    1.030 
 3964   77.642   -0.258    2.771   33.479   26.891    0.417    1.034 
 3965   77.816   -0.255    2.772   33.482   26.893    0.417    1.034 
 3966   77.989   -0.251    2.772   33.482   26.893    0.441    1.034 
 3967   78.163   -0.251    2.772   33.486   26.896    0.441    1.034 
 3969   78.337   -0.247    2.773   33.486   26.896    0.441    1.034 
 3971   78.510   -0.243    2.773   33.491   26.899    0.441    1.034 
 3972   78.684   -0.241    2.774   33.497   26.904    0.441    1.034 
 3974   78.857   -0.241    2.774   33.497   26.904    0.441    1.034 
 3975   79.031   -0.241    2.774   33.497   26.904    0.441    1.034 
 3976   79.205   -0.241    2.774   33.497   26.904    0.441    1.034 
 3977   79.378   -0.241    2.774   33.497   26.904    0.441    1.034 
 3979   79.552   -0.241    2.774   33.497   26.904    0.441    1.034 
 3980   79.725   -0.241    2.774   33.497   26.905    0.441    1.034 
 3982   79.899   -0.241    2.775   33.508   26.913    0.441    1.034 
 3983   80.073   -0.242    2.775   33.508   26.913    0.441    1.034 
 3986   80.246   -0.242    2.775   33.508   26.913    0.441    1.034 
 3987   80.420   -0.242    2.775   33.510   26.915    0.441    1.034 
 3988   80.593   -0.242    2.775   33.510   26.915    0.441    1.034 
 3989   80.767   -0.242    2.775   33.510   26.915    0.441    1.030 
 3991   80.941   -0.242    2.775   33.510   26.915    0.417    1.030 
 3993   81.114   -0.242    2.775   33.510   26.915    0.441    1.030 
 3995   81.288   -0.242    2.775   33.510   26.915    0.417    1.030 
 3997   81.461   -0.242    2.775   33.510   26.915    0.417    1.034 
 3998   81.635   -0.240    2.775   33.510   26.915    0.417    1.034 
 4001   81.809   -0.237    2.775   33.510   26.915    0.394    1.030 
 4002   81.982   -0.236    2.775   33.510   26.915    0.394    1.030 
 4004   82.156   -0.233    2.776   33.510   26.915    0.394    1.030 
 4006   82.329   -0.228    2.776   33.510   26.915    0.394    1.026 
 4007   82.503   -0.222    2.776   33.510   26.915    0.394    1.026 
 4010   82.677   -0.186    2.779   33.513   26.915    0.371    1.026 
 4011   82.850   -0.177    2.781   33.517   26.918    0.371    1.026 
 4014   83.024   -0.159    2.783   33.522   26.921    0.371    1.026 
 4016   83.197   -0.145    2.784   33.524   26.922    0.371    1.026 
 4017   83.371   -0.140    2.785   33.524   26.922    0.371    1.026 
 4019   83.545   -0.127    2.786   33.528   26.924    0.371    1.023 
 4022   83.718   -0.099    2.788   33.530   26.924    0.371    1.023 
 4023   83.892   -0.089    2.790   33.532   26.925    0.371    1.023 
 4024   84.065   -0.082    2.790   33.537   26.929    0.348    1.019 
 4026   84.239   -0.075    2.791   33.540   26.931    0.371    1.019 
 4027   84.413   -0.074    2.792   33.540   26.931    0.371    1.019 
 4029   84.586   -0.071    2.792   33.546   26.936    0.371    1.023 
 4030   84.760   -0.066    2.792   33.546   26.936    0.394    1.023 
 4032   84.933   -0.063    2.793   33.548   26.937    0.394    1.026 
 4033   85.107   -0.062    2.793   33.549   26.938    0.394    1.023 
 4035   85.280   -0.061    2.793   33.549   26.938    0.371    1.023 
 4036   85.454   -0.060    2.793   33.550   26.939    0.417    1.023 
 4038   85.628   -0.057    2.794   33.551   26.939    0.371    1.023 
 4039   85.801   -0.054    2.794   33.553   26.941    0.371    1.023 
 4041   85.975   -0.045    2.795   33.556   26.943    0.371    1.023 
 4044   86.148   -0.036    2.796   33.556   26.943    0.371    1.026 
 4045   86.322   -0.028    2.796   33.559   26.944    0.417    1.026 
 4047   86.496    0.009    2.800   33.563   26.945    0.371    1.026 
 4049   86.669    0.033    2.802   33.563   26.946    0.371    1.026 
 4051   86.843    0.049    2.804   33.572   26.951    0.371    1.023 
 4053   87.016    0.060    2.805   33.573   26.951    0.371    1.023 
 4056   87.190    0.062    2.806   33.580   26.957    0.371    1.023 
 4058   87.364    0.065    2.806   33.583   26.959    0.371    1.023 
 4060   87.537    0.066    2.807   33.592   26.966    0.371    1.023 
 4062   87.711    0.074    2.808   33.592   26.966    0.371    1.023 
 4065   87.884    0.075    2.808   33.593   26.967    0.371    1.023 
 4067   88.058    0.077    2.808   33.595   26.968    0.371    1.023 
 4068   88.232    0.078    2.808   33.596   26.969    0.371    1.023 
 4071   88.405    0.081    2.809   33.596   26.969    0.371    1.023 
 4072   88.579    0.086    2.809   33.601   26.971    0.371    1.023 
 4073   88.752    0.093    2.810   33.601   26.972    0.371    1.023 
 4075   88.926    0.104    2.811   33.602   26.972    0.371    1.023 
 4077   89.273    0.107    2.812   33.602   26.972    0.371    1.023 
 4080   89.620    0.113    2.812   33.603   26.973    0.371    1.023 
 4083   89.794    0.139    2.814   33.603   26.973    0.394    1.023 
 4084   89.967    0.151    2.815   33.605   26.973    0.394    1.023 
 4085   90.141    0.165    2.816   33.610   26.976    0.371    1.023 
 4086   90.315    0.175    2.818   33.612   26.977    0.371    1.023 
 4087   90.488    0.180    2.818   33.615   26.979    0.371    1.023 
 4089   90.662    0.188    2.819   33.616   26.979    0.371    1.019 
 4090   90.835    0.195    2.820   33.620   26.982    0.371    1.019 
 4091   91.009    0.200    2.821   33.621   26.983    0.371    1.019 
 4092   91.183    0.206    2.821   33.622   26.983    0.371    1.019 
 4093   91.356    0.215    2.822   33.624   26.984    0.371    1.019 
 4094   91.530    0.229    2.823   33.625   26.984    0.371    1.019 
 4096   91.703    0.232    2.824   33.628   26.986    0.371    1.019 
 4097   91.877    0.233    2.824   33.630   26.988    0.371    1.019 
 4098   92.051    0.238    2.824   33.631   26.989    0.371    1.019 
 4100   92.224    0.251    2.826   33.632   26.989    0.371    1.015 
 4101   92.398    0.262    2.827   33.632   26.989    0.371    1.015 
 4102   92.571    0.268    2.827   33.635   26.990    0.371    1.015 
 4104   92.745    0.283    2.829   33.636   26.990    0.371    1.015 
 4105   92.918    0.287    2.829   33.636   26.990    0.371    1.015 
 4106   93.092    0.288    2.829   33.637   26.990    0.371    1.015 
 4108   93.266    0.311    2.831   33.638   26.991    0.371    1.015 
 4109   93.439    0.339    2.833   33.639   26.991    0.371    1.015 
 4110   93.613    0.356    2.835   33.641   26.991    0.371    1.015 
 4113   93.786    0.399    2.840   33.654   26.999    0.348    1.015 
 4114   93.960    0.402    2.840   33.657   27.001    0.348    1.015 
 4116   94.134    0.418    2.842   33.661   27.003    0.348    1.015 
 4118   94.307    0.436    2.844   33.663   27.004    0.348    1.015 
 4120   94.481    0.445    2.845   33.669   27.007    0.348    1.015 
 4123   94.654    0.503    2.849   33.672   27.008    0.348    1.015 
 4126   94.828    0.546    2.854   33.679   27.011    0.348    1.015 
 4127   95.001    0.554    2.855   33.683   27.014    0.348    1.011 
 4130   95.175    0.562    2.857   33.700   27.026    0.348    1.011 
 4133   95.349    0.562    2.857   33.700   27.027    0.348    1.011 
 4136   95.522    0.571    2.858   33.701   27.027    0.348    1.011 
 4138   95.696    0.571    2.858   33.703   27.029    0.348    1.011 
 4140   95.869    0.567    2.858   33.703   27.029    0.348    1.008 
 4143   96.043    0.562    2.857   33.703   27.029    0.348    1.004 
 4144   96.217    0.559    2.857   33.708   27.033    0.348    1.008 
 4146   96.390    0.554    2.857   33.709   27.034    0.348    1.008 
 4148   96.564    0.541    2.857   33.709   27.035    0.348    1.011 
 4150   96.737    0.478    2.852   33.709   27.039    0.348    1.011 
 4151   96.911    0.456    2.850   33.709   27.040    0.348    1.011 
 4153   97.085    0.433    2.847   33.709   27.042    0.348    1.011 
 4154   97.258    0.433    2.847   33.710   27.042    0.348    1.011 
 4156   97.432    0.433    2.847   33.710   27.042    0.348    1.011 
 4158   97.605    0.433    2.847   33.710   27.042    0.348    1.011 
 4159   97.779    0.433    2.847   33.710   27.042    0.348    1.011 
 4160   97.952    0.433    2.847   33.717   27.048    0.348    1.011 
 4162   98.126    0.433    2.847   33.717   27.048    0.348    1.011 
 4163   98.300    0.433    2.847   33.717   27.048    0.348    1.011 
 4164   98.473    0.437    2.848   33.717   27.048    0.348    1.011 
 4166   98.820    0.437    2.848   33.717   27.048    0.348    1.011 
 4168   98.994    0.437    2.848   33.717   27.048    0.324    1.015 
 4169   99.168    0.437    2.848   33.718   27.048    0.324    1.015 
 4170   99.341    0.441    2.850   33.739   27.065    0.324    1.015 
 4172   99.515    0.445    2.851   33.744   27.068    0.324    1.015 
 4174   99.688    0.445    2.851   33.747   27.071    0.324    1.015 
 4175   99.862    0.445    2.851   33.747   27.071    0.348    1.015 
 4176  100.035    0.445    2.851   33.747   27.071    0.348    1.015 
 4178  100.209    0.441    2.851   33.747   27.071    0.348    1.019 
 4179  100.383    0.436    2.850   33.747   27.071    0.348    1.019 
 4182  100.556    0.415    2.849   33.747   27.071    0.348    1.019 
 4183  100.730    0.415    2.849   33.748   27.072    0.348    1.019 
 4186  100.903    0.421    2.849   33.749   27.072    0.348    1.015 
 4188  101.077    0.427    2.850   33.749   27.073    0.348    1.015 
 4191  101.250    0.443    2.851   33.749   27.073    0.371    1.015 
 4194  101.424    0.443    2.851   33.751   27.073    0.371    1.011 
 4196  101.598    0.474    2.853   33.753   27.073    0.348    1.011 
 4197  101.771    0.493    2.854   33.753   27.073    0.371    1.011 
 4201  101.945    0.544    2.861   33.753   27.073    0.371    1.011 
 4202  102.118    0.546    2.861   33.754   27.073    0.348    1.011 
 4204  102.292    0.548    2.861   33.754   27.073    0.348    1.008 
 4205  102.466    0.552    2.861   33.759   27.074    0.348    1.008 
 4207  102.639    0.558    2.861   33.761   27.074    0.348    1.008 
 4209  102.813    0.560    2.862   33.763   27.075    0.348    1.008 
 4210  102.986    0.638    2.864   33.764   27.075    0.348    1.008 
 4211  103.160    0.669    2.871   33.766   27.075    0.348    1.008 
 4212  103.333    0.672    2.872   33.768   27.075    0.348    1.008 
 4214  103.507    0.700    2.873   33.768   27.076    0.348    1.008 
 4215  103.681    0.702    2.875   33.771   27.076    0.348    1.008 
 4216  103.854    0.703    2.876   33.772   27.078    0.348    1.008 
 4217  104.028    0.715    2.876   33.775   27.078    0.348    1.008 
 4219  104.375    0.725    2.878   33.777   27.078    0.348    1.008 
 4222  104.549    0.750    2.880   33.777   27.079    0.348    1.004 
 4223  104.722    0.777    2.881   33.789   27.079    0.348    1.004 
 4224  104.896    0.828    2.885   33.789   27.082    0.348    1.004 
 4226  105.069    0.903    2.892   33.790   27.085    0.348    1.000 
 4227  105.243    0.927    2.896   33.800   27.085    0.348    1.000 
 4228  105.416    0.965    2.899   33.802   27.085    0.348    1.000 
 4230  105.590    0.975    2.901   33.809   27.090    0.348    1.000 
 4231  105.764    0.975    2.901   33.814   27.094    0.348    1.000 
 4233  105.937    0.976    2.902   33.814   27.094    0.348    1.000 
 4234  106.111    0.976    2.902   33.815   27.094    0.348    1.000 
 4235  106.284    0.976    2.902   33.823   27.096    0.348    1.000 
 4237  106.458    0.986    2.902   33.826   27.097    0.348    1.000 
 4239  106.631    1.062    2.908   33.826   27.100    0.348    1.000 
 4240  106.805    1.085    2.911   33.826   27.100    0.348    1.000 
 4241  106.979    1.100    2.913   33.832   27.101    0.348    1.000 
 4243  107.152    1.165    2.919   33.838   27.102    0.348    1.000 
 4245  107.326    1.173    2.920   33.842   27.103    0.348    1.000 
 4248  107.499    1.174    2.921   33.848   27.108    0.348    1.000 
 4250  107.673    1.191    2.922   33.854   27.109    0.324    1.000 
 4252  107.846    1.233    2.926   33.854   27.111    0.324    1.000 
 4254  108.020    1.248    2.928   33.863   27.115    0.348    1.000 
 4257  108.194    1.269    2.930   33.866   27.115    0.324    1.000 
 4260  108.367    1.313    2.934   33.869   27.116    0.371    1.000 
 4262  108.541    1.317    2.935   33.876   27.121    0.371    1.000 
 4265  108.714    1.318    2.935   33.878   27.122    0.371    1.000 
 4268  108.888    1.322    2.936   33.880   27.123    0.371    1.000 
 4270  109.061    1.322    2.936   33.881   27.125    0.371    1.000 
 4272  109.235    1.325    2.936   33.882   27.125    0.371    1.000 
 4275  109.409    1.350    2.938   33.885   27.125    0.371    1.000 
 4276  109.582    1.359    2.939   33.885   27.125    0.371    1.000 
 4277  109.756    1.363    2.940   33.889   27.128    0.371    1.000 
 4279  109.929    1.382    2.942   33.891   27.128    0.371    1.000 
 4280  110.103    1.388    2.942   33.894   27.130    0.371    1.000 
 4281  110.277    1.390    2.943   33.896   27.131    0.371    1.000 
 4283  110.450    1.391    2.943   33.898   27.134    0.348    1.000 
 4284  110.624    1.395    2.943   33.899   27.134    0.348    1.000 
 4285  110.797    1.400    2.944   33.901   27.135    0.371    1.000 
 4286  110.971    1.404    2.945   33.908   27.140    0.371    1.000 
 4287  111.144    1.405    2.945   33.908   27.140    0.371    1.000 
 4289  111.318    1.414    2.946   33.908   27.140    0.394    1.000 
 4290  111.492    1.415    2.946   33.908   27.140    0.394    1.000 
 4291  111.665    1.415    2.946   33.908   27.140    0.371    1.000 
 4292  111.839    1.416    2.946   33.908   27.140    0.394    1.000 
 4293  112.012    1.416    2.946   33.908   27.140    0.417    1.000 
 4294  112.186    1.416    2.946   33.909   27.141    0.394    1.000 
 4295  112.359    1.416    2.946   33.909   27.141    0.417    1.000 
 4297  112.533    1.416    2.946   33.909   27.141    0.417    1.000 
 4298  112.707    1.416    2.946   33.909   27.141    0.417    1.000 
 4300  112.880    1.416    2.946   33.910   27.141    0.417    1.000 
 4302  113.054    1.416    2.946   33.910   27.141    0.417    1.000 
 4303  113.227    1.414    2.946   33.910   27.141    0.394    1.000 
 4305  113.401    1.384    2.945   33.910   27.143    0.394    1.000 
 4307  113.574    1.298    2.940   33.912   27.151    0.394    1.000 
 4309  113.748    1.214    2.932   33.917   27.160    0.394    1.000 
 4310  113.922    1.186    2.928   33.917   27.162    0.371    1.000 
 4313  114.095    1.166    2.926   33.917   27.164    0.394    1.000 
 4316  114.269    1.136    2.923   33.917   27.166    0.371    1.000 
 4319  114.442    1.132    2.922   33.917   27.166    0.348    1.000 
 4321  114.616    1.129    2.922   33.917   27.166    0.348    1.000 
 4323  114.789    1.102    2.921   33.917   27.168    0.371    1.000 
 4325  114.963    1.071    2.918   33.917   27.170    0.371    1.000 
 4327  115.137    1.025    2.915   33.917   27.173    0.371    1.000 
 4330  115.310    0.994    2.911   33.917   27.175    0.371    1.000 
 4331  115.484    0.992    2.911   33.917   27.175    0.371    1.000 
 4332  115.657    0.988    2.910   33.917   27.176    0.371    1.000 
 4334  115.831    0.975    2.909   33.917   27.176    0.371    1.000 
 4335  116.004    0.975    2.909   33.917   27.176    0.371    1.000 
 4336  116.178    0.971    2.909   33.917   27.176    0.371    1.000 
 4338  116.352    0.970    2.909   33.917   27.177    0.371    1.000 
 4339  116.525    0.969    2.909   33.917   27.177    0.371    0.996 
 4340  116.699    0.969    2.909   33.917   27.177    0.371    0.996 
 4341  116.872    0.969    2.909   33.917   27.177    0.371    0.996 
 4343  117.046    0.969    2.909   33.917   27.177    0.371    0.993 
 4344  117.219    0.969    2.909   33.917   27.177    0.371    0.993 
 4345  117.393    0.969    2.909   33.917   27.177    0.371    0.993 
 4347  117.567    0.970    2.909   33.917   27.177    0.371    0.993 
 4348  117.740    0.975    2.909   33.917   27.177    0.371    0.993 
 4349  117.914    0.979    2.910   33.918   27.177    0.371    0.993 
 4351  118.087    0.992    2.911   33.919   27.177    0.371    0.993 
 4352  118.261    0.996    2.912   33.923   27.180    0.371    0.993 
 4353  118.434    0.996    2.912   33.924   27.180    0.371    0.993 
 4355  118.608    0.997    2.912   33.924   27.181    0.371    0.993 
 4357  118.781    0.998    2.912   33.926   27.181    0.324    0.993 
 4358  118.955    1.003    2.913   33.926   27.182    0.371    0.993 
 4360  119.129    1.009    2.913   33.931   27.185    0.371    0.993 
 4363  119.302    1.009    2.914   33.935   27.188    0.394    0.993 
 4365  119.476    1.009    2.914   33.935   27.188    0.371    0.993 
 4366  119.649    1.010    2.914   33.935   27.188    0.371    0.993 
 4369  119.823    1.010    2.914   33.935   27.188    0.371    0.989 
 4371  119.996    1.010    2.914   33.935   27.189    0.371    0.989 
 4373  120.170    1.010    2.914   33.935   27.189    0.371    0.989 
 4375  120.344    1.010    2.914   33.935   27.189    0.371    0.989 
 4377  120.517    1.010    2.914   33.935   27.189    0.371    0.989 
 4378  120.691    1.010    2.914   33.937   27.190    0.371    0.989 
 4380  120.864    1.008    2.914   33.937   27.190    0.371    0.989 
 4381  121.038    1.005    2.914   33.937   27.190    0.371    0.989 
 4384  121.211    0.999    2.913   33.937   27.190    0.371    0.989 
 4386  121.385    0.996    2.913   33.937   27.191    0.371    0.989 
 4387  121.559    0.996    2.913   33.937   27.191    0.371    0.989 
 4388  121.732    0.996    2.913   33.937   27.191    0.371    0.993 
 4390  121.906    0.995    2.913   33.937   27.191    0.348    0.993 
 4392  122.079    0.995    2.913   33.937   27.191    0.348    0.993 
 4394  122.253    0.995    2.913   33.937   27.191    0.348    0.993 
 4395  122.426    0.995    2.913   33.937   27.191    0.348    0.993 
 4397  122.600    0.995    2.913   33.937   27.191    0.348    0.993 
 4400  122.773    0.995    2.913   33.937   27.191    0.348    0.989 
 4402  122.947    0.996    2.913   33.937   27.191    0.348    0.989 
 4404  123.121    1.003    2.914   33.937   27.191    0.348    0.985 
 4405  123.294    1.004    2.914   33.937   27.191    0.348    0.985 
 4407  123.468    1.005    2.914   33.938   27.191    0.348    0.985 
 4409  123.641    1.005    2.914   33.938   27.191    0.348    0.985 
 4411  123.815    1.006    2.914   33.939   27.191    0.348    0.985 
 4412  123.988    1.021    2.915   33.939   27.191    0.348    0.985 
 4413  124.162    1.062    2.918   33.940   27.191    0.348    0.985 
 4416  124.509    1.095    2.922   33.940   27.191    0.348    0.985 
 4418  124.683    1.126    2.924   33.941   27.190    0.371    0.985 
 4420  124.856    1.153    2.927   33.943   27.190    0.371    0.985 
 4421  125.030    1.159    2.928   33.944   27.190    0.348    0.985 
 4423  125.377    1.179    2.930   33.950   27.190    0.348    0.985 
 4425  125.551    1.210    2.933   33.953   27.190    0.348    0.985 
 4427  125.724    1.250    2.936   33.954   27.190    0.348    0.985 
 4429  125.898    1.263    2.939   33.958   27.190    0.324    0.985 
 4430  126.071    1.265    2.939   33.960   27.190    0.324    0.982 
 4432  126.245    1.268    2.939   33.963   27.190    0.324    0.982 
 4434  126.418    1.444    2.949   33.969   27.190    0.324    0.982 
 4435  126.592    1.452    2.954   33.971   27.191    0.324    0.982 
 4438  126.765    1.469    2.957   33.975   27.192    0.324    0.982 
 4440  126.939    1.475    2.958   33.977   27.192    0.324    0.982 
 4441  127.113    1.525    2.960   33.983   27.194    0.324    0.982 
 4443  127.286    1.563    2.964   33.989   27.194    0.348    0.982 
 4445  127.460    1.587    2.968   33.994   27.197    0.348    0.982 
 4448  127.633    1.588    2.969   33.999   27.201    0.371    0.985 
 4449  127.807    1.589    2.969   34.001   27.202    0.371    0.985 
 4451  127.980    1.590    2.969   34.003   27.203    0.371    0.985 
 4452  128.154    1.590    2.969   34.003   27.203    0.371    0.985 
 4453  128.327    1.590    2.969   34.003   27.203    0.371    0.985 
 4455  128.501    1.590    2.969   34.003   27.203    0.371    0.985 
 4457  128.675    1.592    2.969   34.003   27.203    0.371    0.985 
 4458  128.848    1.593    2.969   34.003   27.203    0.371    0.985 
 4460  129.022    1.593    2.970   34.003   27.203    0.371    0.985 
 4461  129.195    1.592    2.970   34.003   27.203    0.371    0.985 
 4462  129.369    1.591    2.970   34.003   27.204    0.371    0.985 
 4464  129.542    1.590    2.970   34.003   27.204    0.371    0.982 
 4465  129.716    1.590    2.970   34.003   27.204    0.371    0.982 
 4467  129.890    1.590    2.969   34.009   27.208    0.371    0.982 
 4468  130.063    1.590    2.969   34.009   27.208    0.371    0.982 
 4470  130.237    1.589    2.969   34.010   27.209    0.371    0.982 
 4471  130.410    1.589    2.969   34.012   27.211    0.371    0.982 
 4472  130.584    1.589    2.969   34.012   27.211    0.371    0.982 
 4475  130.757    1.583    2.969   34.013   27.212    0.371    0.982 
 4476  130.931    1.583    2.969   34.014   27.213    0.371    0.982 
 4477  131.104    1.582    2.969   34.015   27.213    0.371    0.982 
 4480  131.452    1.580    2.969   34.015   27.214    0.371    0.982 
 4482  131.625    1.573    2.969   34.015   27.214    0.371    0.978 
 4483  131.799    1.564    2.969   34.012   27.214    0.348    0.978 
 4486  131.972    1.533    2.966   34.015   27.217    0.371    0.978 
 4488  132.146    1.516    2.965   34.015   27.217    0.371    0.978 
 4490  132.319    1.506    2.963   34.015   27.217    0.371    0.982 
 4492  132.493    1.506    2.963   34.015   27.217    0.371    0.982 
 4493  132.666    1.506    2.963   34.015   27.217    0.348    0.982 
 4496  132.840    1.506    2.963   34.015   27.218    0.371    0.978 
 4498  133.014    1.506    2.963   34.015   27.219    0.371    0.978 
 4500  133.187    1.506    2.963   34.015   27.219    0.371    0.982 
 4501  133.361    1.519    2.963   34.019   27.219    0.371    0.982 
 4503  133.534    1.639    2.974   34.024   27.219    0.371    0.982 
 4505  133.708    1.649    2.976   34.024   27.219    0.371    0.982 
 4507  133.881    1.698    2.977   34.025   27.219    0.371    0.982 
 4508  134.055    1.758    2.984   34.025   27.221    0.371    0.982 
 4510  134.228    1.767    2.988   34.041   27.222    0.371    0.982 
 4512  134.402    1.769    2.988   34.044   27.222    0.371    0.982 
 4513  134.576    1.770    2.988   34.045   27.222    0.371    0.982 
 4514  134.749    1.771    2.988   34.046   27.223    0.371    0.982 
 4517  134.923    1.809    2.991   34.046   27.224    0.394    0.982 
 4518  135.096    1.810    2.992   34.046   27.224    0.371    0.982 
 4519  135.270    1.811    2.992   34.048   27.224    0.371    0.982 
 4521  135.443    1.815    2.992   34.051   27.225    0.371    0.982 
 4523  135.790    1.817    2.993   34.052   27.225    0.371    0.978 
 4526  135.964    1.821    2.993   34.052   27.225    0.371    0.978 
 4527  136.138    1.829    2.994   34.056   27.226    0.371    0.978 
 4529  136.311    1.873    2.997   34.056   27.226    0.348    0.978 
 4530  136.485    1.887    2.999   34.057   27.228    0.348    0.978 
 4532  136.658    1.888    3.000   34.067   27.233    0.348    0.975 
 4533  136.832    1.888    3.000   34.067   27.233    0.348    0.975 
 4535  137.005    1.888    3.000   34.067   27.233    0.348    0.975 
 4537  137.179    1.888    3.000   34.067   27.233    0.348    0.975 
 4538  137.352    1.888    3.000   34.067   27.233    0.348    0.975 
 4540  137.526    1.888    3.000   34.067   27.233    0.348    0.975 
 4541  137.700    1.888    3.000   34.068   27.233    0.348    0.975 
 4543  137.873    1.868    2.999   34.068   27.235    0.348    0.975 
 4544  138.047    1.858    2.998   34.071   27.238    0.348    0.975 
 4547  138.220    1.722    2.988   34.071   27.249    0.348    0.978 
 4548  138.394    1.709    2.985   34.072   27.250    0.348    0.978 
 4550  138.567    1.691    2.984   34.072   27.252    0.348    0.978 
 4552  138.741    1.691    2.984   34.072   27.252    0.348    0.978 
 4553  138.914    1.689    2.984   34.072   27.252    0.348    0.978 
 4555  139.088    1.673    2.982   34.073   27.254    0.348    0.978 
 4558  139.262    1.671    2.982   34.074   27.254    0.348    0.978 
 4560  139.609    1.671    2.982   34.074   27.254    0.348    0.978 
 4563  139.782    1.689    2.983   34.075   27.254    0.348    0.975 
 4566  139.956    1.695    2.984   34.075   27.255    0.324    0.975 
 4567  140.129    1.695    2.984   34.076   27.255    0.324    0.975 
 4568  140.303    1.695    2.984   34.076   27.255    0.324    0.975 
 4570  140.476    1.707    2.985   34.077   27.255    0.324    0.971 
 4571  140.650    1.707    2.986   34.077   27.255    0.324    0.971 
 4573  140.823    1.707    2.986   34.079   27.255    0.324    0.971 
 4574  140.997    1.711    2.986   34.079   27.256    0.324    0.971 
 4576  141.171    1.714    2.986   34.080   27.256    0.324    0.971 
 4578  141.518    1.715    2.986   34.084   27.258    0.324    0.971 
 4580  141.691    1.735    2.988   34.084   27.260    0.348    0.975 
 4582  142.038    1.735    2.989   34.090   27.263    0.348    0.971 
 4584  142.212    1.736    2.989   34.091   27.264    0.348    0.971 
 4585  142.385    1.737    2.990   34.094   27.265    0.348    0.971 
 4587  142.559    1.741    2.990   34.094   27.265    0.348    0.971 
 4588  142.733    1.742    2.990   34.096   27.267    0.348    0.971 
 4590  142.906    1.744    2.990   34.096   27.267    0.348    0.971 
 4592  143.253    1.746    2.991   34.096   27.267    0.348    0.971 
 4594  143.427    1.746    2.991   34.097   27.267    0.348    0.971 
 4596  143.600    1.746    2.991   34.097   27.267    0.348    0.971 
 4598  143.774    1.746    2.991   34.097   27.267    0.348    0.971 
 4599  143.947    1.746    2.991   34.099   27.267    0.348    0.971 
 4603  144.121    1.755    2.991   34.101   27.267    0.348    0.971 
 4605  144.294    1.763    2.992   34.103   27.267    0.348    0.971 
 4607  144.468    1.776    2.993   34.103   27.267    0.348    0.971 
 4609  144.642    1.785    2.994   34.103   27.267    0.348    0.971 
 4612  144.815    1.815    2.997   34.103   27.268    0.348    0.971 
 4613  144.989    1.824    2.997   34.104   27.268    0.348    0.971 
 4614  145.162    1.835    2.999   34.104   27.268    0.348    0.971 
 4617  145.336    1.839    2.999   34.104   27.269    0.371    0.975 
 4619  145.509    1.871    3.001   34.104   27.270    0.348    0.975 
 4620  145.683    1.890    3.004   34.107   27.270    0.348    0.975 
 4623  145.856    1.893    3.005   34.109   27.270    0.348    0.975 
 4624  146.030    1.894    3.005   34.110   27.270    0.348    0.975 
 4625  146.203    1.912    3.005   34.119   27.270    0.348    0.975 
 4627  146.377    1.949    3.009   34.120   27.272    0.348    0.975 
 4628  146.551    1.959    3.011   34.123   27.273    0.348    0.975 
 4629  146.724    1.963    3.012   34.132   27.279    0.324    0.975 
 4631  146.898    1.969    3.013   34.134   27.280    0.324    0.975 
 4633  147.071    1.969    3.013   34.137   27.281    0.324    0.971 
 4634  147.245    1.969    3.013   34.137   27.282    0.324    0.967 
 4636  147.418    1.984    3.014   34.138   27.282    0.324    0.964 
 4637  147.592    1.991    3.015   34.138   27.283    0.348    0.964 
 4639  147.765    2.003    3.016   34.139   27.283    0.348    0.964 
 4640  147.939    2.004    3.017   34.142   27.284    0.348    0.964 
 4642  148.112    2.005    3.017   34.145   27.286    0.371    0.964 
 4643  148.286    2.007    3.017   34.146   27.287    0.371    0.964 
 4645  148.460    2.014    3.018   34.148   27.288    0.371    0.964 
 4647  148.633    2.031    3.019   34.149   27.288    0.371    0.964 
 4648  148.807    2.045    3.020   34.151   27.288    0.371    0.964 
 4650  148.980    2.063    3.023   34.153   27.288    0.371    0.964 
 4651  149.154    2.070    3.023   34.160   27.293    0.371    0.964 
 4653  149.327    2.082    3.025   34.162   27.293    0.371    0.964 
 4655  149.501    2.096    3.026   34.162   27.294    0.394    0.964 
 4656  149.674    2.101    3.027   34.165   27.294    0.394    0.964 
 4659  149.848    2.105    3.027   34.165   27.294    0.371    0.964 
 4661  150.021    2.107    3.027   34.165   27.294    0.371    0.964 
 4662  150.195    2.110    3.028   34.167   27.296    0.371    0.964 
 4664  150.369    2.114    3.028   34.169   27.296    0.371    0.964 
 4666  150.542    2.116    3.028   34.169   27.297    0.371    0.964 
 4668  150.716    2.127    3.030   34.170   27.297    0.371    0.964 
 4670  150.889    2.147    3.031   34.171   27.297    0.371    0.964 
 4673  151.063    2.169    3.033   34.178   27.299    0.348    0.964 
 4674  151.236    2.171    3.034   34.178   27.299    0.371    0.964 
 4676  151.410    2.172    3.034   34.178   27.299    0.371    0.964 
 4678  151.583    2.173    3.034   34.178   27.300    0.348    0.964 
 4679  151.757    2.173    3.034   34.179   27.300    0.348    0.964 
 4681  152.104    2.175    3.035   34.180   27.301    0.348    0.964 
 4684  152.278    2.178    3.035   34.181   27.301    0.371    0.964 
 4685  152.451    2.184    3.035   34.181   27.301    0.371    0.964 
 4687  152.625    2.204    3.037   34.184   27.302    0.371    0.964 
 4688  152.798    2.207    3.038   34.188   27.304    0.348    0.964 
 4690  152.972    2.216    3.038   34.189   27.305    0.371    0.964 
 4692  153.145    2.218    3.039   34.189   27.305    0.371    0.964 
 4694  153.319    2.220    3.039   34.190   27.306    0.371    0.964 
 4696  153.492    2.223    3.040   34.191   27.306    0.371    0.964 
 4698  153.666    2.231    3.040   34.194   27.308    0.371    0.964 
 4700  153.839    2.241    3.042   34.197   27.309    0.371    0.964 
 4701  154.013    2.249    3.042   34.198   27.309    0.371    0.960 
 4703  154.186    2.270    3.044   34.203   27.311    0.371    0.960 
 4705  154.360    2.273    3.045   34.203   27.312    0.371    0.960 
 4707  154.534    2.273    3.045   34.204   27.312    0.371    0.960 
 4710  154.707    2.274    3.045   34.204   27.312    0.371    0.960 
 4711  154.881    2.274    3.045   34.204   27.312    0.371    0.960 
 4713  155.054    2.274    3.045   34.206   27.313    0.371    0.960 
 4715  155.228    2.275    3.045   34.206   27.313    0.371    0.960 
 4717  155.401    2.275    3.046   34.208   27.315    0.371    0.960 
 4718  155.575    2.275    3.046   34.209   27.316    0.371    0.960 
 4720  155.748    2.281    3.046   34.211   27.317    0.371    0.960 
 4722  155.922    2.293    3.047   34.214   27.318    0.371    0.960 
 4723  156.095    2.299    3.048   34.215   27.319    0.371    0.960 
 4725  156.269    2.313    3.049   34.215   27.319    0.371    0.960 
 4726  156.616    2.313    3.050   34.221   27.323    0.371    0.960 
 4728  156.790    2.315    3.050   34.223   27.324    0.371    0.960 
 4730  156.963    2.319    3.051   34.224   27.324    0.394    0.960 
 4732  157.137    2.325    3.051   34.224   27.324    0.371    0.960 
 4733  157.310    2.327    3.052   34.226   27.325    0.371    0.960 
 4734  157.484    2.329    3.052   34.227   27.326    0.371    0.964 
 4736  157.657    2.332    3.052   34.229   27.328    0.371    0.964 
 4737  157.831    2.335    3.052   34.230   27.328    0.371    0.964 
 4739  158.178    2.341    3.053   34.231   27.328    0.371    0.964 
 4741  158.351    2.356    3.054   34.233   27.329    0.371    0.964 
 4743  158.525    2.366    3.056   34.236   27.330    0.324    0.960 
 4744  158.698    2.370    3.056   34.237   27.331    0.324    0.960 
 4746  158.872    2.376    3.057   34.240   27.333    0.324    0.960 
 4748  159.046    2.380    3.057   34.241   27.333    0.324    0.960 
 4750  159.219    2.386    3.058   34.243   27.334    0.324    0.960 
 4752  159.393    2.394    3.059   34.246   27.336    0.324    0.960 
 4754  159.566    2.399    3.060   34.247   27.336    0.324    0.960 
 4756  159.740    2.403    3.060   34.249   27.338    0.324    0.960 
 4758  159.913    2.408    3.061   34.254   27.339    0.324    0.957 
 4760  160.087    2.440    3.063   34.256   27.340    0.324    0.957 
 4763  160.260    2.458    3.066   34.257   27.341    0.371    0.957 
 4765  160.434    2.465    3.066   34.264   27.344    0.371    0.957 
 4766  160.607    2.469    3.067   34.265   27.344    0.348    0.957 
 4769  160.781    2.471    3.068   34.270   27.349    0.371    0.957 
 4770  160.954    2.471    3.068   34.273   27.351    0.371    0.960 
 4772  161.128    2.472    3.068   34.274   27.351    0.371    0.960 
 4774  161.302    2.475    3.068   34.275   27.352    0.348    0.960 
 4776  161.475    2.483    3.069   34.275   27.352    0.371    0.960 
 4778  161.649    2.488    3.070   34.277   27.353    0.371    0.960 
 4779  161.822    2.491    3.070   34.279   27.354    0.348    0.960 
 4782  161.996    2.497    3.071   34.281   27.355    0.371    0.960 
 4783  162.169    2.499    3.071   34.281   27.355    0.371    0.960 
 4785  162.343    2.501    3.071   34.283   27.357    0.394    0.960 
 4787  162.516    2.503    3.072   34.284   27.357    0.371    0.960 
 4788  162.690    2.504    3.072   34.284   27.357    0.371    0.960 
 4790  162.863    2.506    3.072   34.284   27.357    0.371    0.960 
 4792  163.037    2.507    3.072   34.284   27.357    0.371    0.960 
 4794  163.210    2.507    3.072   34.285   27.358    0.371    0.960 
 4795  163.384    2.507    3.072   34.287   27.359    0.394    0.960 
 4796  163.557    2.507    3.072   34.288   27.360    0.371    0.960 
 4799  163.731    2.511    3.073   34.288   27.360    0.371    0.957 
 4800  163.905    2.511    3.073   34.288   27.360    0.394    0.960 
 4802  164.078    2.513    3.073   34.289   27.360    0.394    0.957 
 4803  164.252    2.514    3.073   34.290   27.361    0.394    0.957 
 4804  164.425    2.514    3.073   34.292   27.362    0.394    0.957 
 4806  164.599    2.515    3.073   34.292   27.362    0.394    0.957 
 4809  164.772    2.517    3.074   34.294   27.364    0.394    0.957 
 4811  164.946    2.517    3.074   34.295   27.365    0.394    0.957 
 4813  165.119    2.518    3.074   34.296   27.365    0.394    0.957 
 4814  165.293    2.519    3.074   34.297   27.366    0.394    0.957 
 4817  165.466    2.520    3.074   34.297   27.366    0.371    0.957 
 4819  165.640    2.521    3.075   34.301   27.369    0.371    0.957 
 4820  165.813    2.522    3.075   34.301   27.369    0.371    0.957 
 4822  165.987    2.522    3.075   34.301   27.369    0.371    0.957 
 4824  166.160    2.523    3.075   34.301   27.369    0.348    0.957 
 4826  166.334    2.524    3.075   34.301   27.369    0.348    0.957 
 4828  166.507    2.524    3.075   34.301   27.369    0.348    0.957 
 4830  166.681    2.524    3.075   34.302   27.370    0.348    0.957 
 4832  166.855    2.524    3.075   34.302   27.370    0.348    0.953 
 4833  167.028    2.524    3.075   34.304   27.371    0.348    0.953 
 4834  167.202    2.524    3.075   34.304   27.371    0.348    0.953 
 4836  167.375    2.523    3.075   34.304   27.371    0.348    0.953 
 4837  167.549    2.521    3.075   34.304   27.371    0.348    0.953 
 4839  167.896    2.510    3.075   34.315   27.382    0.348    0.953 
 4841  168.069    2.509    3.075   34.316   27.382    0.371    0.953 
 4842  168.243    2.509    3.075   34.316   27.382    0.371    0.953 
 4844  168.416    2.509    3.075   34.316   27.382    0.371    0.953 
 4845  168.590    2.509    3.075   34.316   27.382    0.371    0.953 
 4847  168.937    2.509    3.075   34.316   27.382    0.417    0.953 
 4850  169.284    2.509    3.075   34.316   27.382    0.417    0.953 
 4852  169.457    2.510    3.076   34.318   27.384    0.394    0.953 
 4854  169.631    2.512    3.076   34.321   27.386    0.371    0.953 
 4855  169.805    2.513    3.076   34.322   27.387    0.371    0.953 
 4856  169.978    2.513    3.076   34.322   27.387    0.371    0.953 
 4857  170.152    2.514    3.076   34.323   27.387    0.371    0.953 
 4859  170.325    2.518    3.076   34.323   27.388    0.394    0.953 
 4861  170.499    2.520    3.077   34.324   27.388    0.394    0.953 
 4863  170.672    2.520    3.077   34.325   27.388    0.371    0.953 
 4865  170.846    2.523    3.077   34.325   27.388    0.371    0.953 
 4867  171.019    2.525    3.077   34.327   27.389    0.371    0.953 
 4869  171.193    2.526    3.077   34.327   27.389    0.371    0.953 
 4872  171.366    2.529    3.078   34.327   27.389    0.371    0.953 
 4876  171.540    2.532    3.078   34.328   27.389    0.371    0.953 
 4878  171.713    2.534    3.078   34.328   27.390    0.371    0.953 
 4880  171.887    2.542    3.079   34.328   27.390    0.371    0.953 
 4882  172.060    2.543    3.079   34.330   27.391    0.371    0.953 
 4885  172.234    2.545    3.080   34.330   27.391    0.371    0.957 
 4887  172.407    2.548    3.080   34.332   27.391    0.371    0.957 
 4888  172.581    2.549    3.080   34.333   27.392    0.371    0.957 
 4890  172.755    2.551    3.080   34.334   27.393    0.371    0.957 
 4893  172.928    2.556    3.081   34.336   27.394    0.371    0.967 
 4894  173.102    2.557    3.081   34.337   27.394    0.371    0.967 
 4895  173.275    2.561    3.081   34.337   27.395    0.394    0.967 
 4897  173.449    2.567    3.082   34.337   27.395    0.371    0.967 
 4899  173.622    2.576    3.083   34.340   27.396    0.371    0.967 
 4901  173.796    2.583    3.084   34.345   27.399    0.394    0.967 
 4902  173.969    2.585    3.085   34.350   27.403    0.394    0.967 
 4905  174.316    2.586    3.085   34.352   27.405    0.371    0.964 
 4907  174.490    2.586    3.085   34.353   27.406    0.371    0.964 
 4909  174.663    2.586    3.085   34.354   27.406    0.371    0.964 
 4910  174.837    2.587    3.085   34.354   27.406    0.371    0.964 
 4911  175.010    2.589    3.085   34.354   27.406    0.371    0.964 
 4913  175.184    2.591    3.086   34.355   27.406    0.371    0.960 
 4915  175.357    2.591    3.086   34.355   27.406    0.371    0.960 
 4916  175.531    2.592    3.086   34.356   27.407    0.371    0.960 
 4918  175.704    2.593    3.086   34.356   27.407    0.371    0.957 
 4919  175.878    2.594    3.086   34.356   27.407    0.371    0.957 
 4920  176.051    2.594    3.086   34.358   27.408    0.394    0.957 
 4922  176.399    2.595    3.086   34.359   27.409    0.394    0.957 
 4924  176.572    2.596    3.086   34.359   27.409    0.394    0.957 
 4926  176.919    2.598    3.087   34.360   27.409    0.394    0.957 
 4929  177.093    2.602    3.087   34.360   27.409    0.417    0.957 
 4930  177.266    2.605    3.087   34.360   27.409    0.394    0.957 
 4932  177.440    2.612    3.088   34.361   27.409    0.394    0.957 
 4934  177.613    2.614    3.088   34.361   27.409    0.417    0.957 
 4935  177.787    2.618    3.089   34.364   27.411    0.394    0.957 
 4938  177.960    2.635    3.090   34.365   27.411    0.417    0.957 
 4939  178.134    2.637    3.091   34.367   27.412    0.417    0.957 
 4940  178.307    2.639    3.091   34.368   27.413    0.417    0.957 
 4942  178.481    2.642    3.091   34.369   27.413    0.417    0.957 
 4945  178.654    2.644    3.092   34.369   27.413    0.417    0.957 
 4947  178.828    2.644    3.092   34.371   27.414    0.417    0.957 
 4949  179.001    2.645    3.092   34.371   27.415    0.417    0.957 
 4952  179.175    2.646    3.092   34.373   27.416    0.417    0.953 
 4955  179.348    2.646    3.092   34.373   27.416    0.394    0.950 
 4956  179.522    2.646    3.092   34.373   27.416    0.394    0.950 
 4959  179.695    2.647    3.092   34.374   27.417    0.394    0.950 
 4962  179.869    2.649    3.092   34.375   27.417    0.394    0.950 
 4964  180.042    2.649    3.092   34.375   27.418    0.371    0.950 
 4965  180.216    2.649    3.093   34.378   27.420    0.371    0.950 
 4967  180.390    2.663    3.094   34.380   27.420    0.394    0.950 
 4970  180.563    2.671    3.095   34.381   27.420    0.394    0.950 
 4971  180.737    2.672    3.095   34.381   27.420    0.371    0.953 
 4972  180.910    2.673    3.095   34.382   27.421    0.371    0.953 
 4974  181.084    2.678    3.096   34.383   27.421    0.394    0.953 
 4975  181.257    2.678    3.096   34.383   27.421    0.394    0.953 
 4977  181.431    2.679    3.096   34.384   27.422    0.394    0.953 
 4978  181.604    2.679    3.096   34.384   27.422    0.394    0.953 
 4979  181.778    2.679    3.096   34.384   27.422    0.394    0.953 
 4981  181.951    2.680    3.096   34.385   27.423    0.394    0.953 
 4982  182.125    2.680    3.096   34.385   27.423    0.394    0.953 
 4983  182.298    2.680    3.096   34.385   27.423    0.394    0.953 
 4985  182.472    2.681    3.096   34.387   27.424    0.417    0.953 
 4986  182.645    2.681    3.096   34.387   27.424    0.394    0.950 
 4988  182.819    2.682    3.097   34.387   27.424    0.394    0.950 
 4989  182.992    2.682    3.097   34.387   27.424    0.394    0.950 
 4991  183.166    2.682    3.097   34.387   27.424    0.394    0.950 
 4992  183.339    2.682    3.097   34.389   27.425    0.394    0.950 
 4993  183.513    2.683    3.097   34.389   27.425    0.394    0.950 
 4995  183.686    2.683    3.097   34.390   27.426    0.394    0.950 
 4996  183.860    2.685    3.097   34.392   27.427    0.394    0.950 
 4998  184.033    2.686    3.097   34.392   27.427    0.394    0.946 
 4999  184.207    2.686    3.097   34.392   27.427    0.394    0.946 
 5001  184.380    2.687    3.097   34.392   27.427    0.394    0.946 
 5003  184.554    2.687    3.097   34.392   27.427    0.394    0.943 
 5004  184.728    2.688    3.097   34.391   27.427    0.371    0.943 
 5005  184.901    2.691    3.098   34.391   27.427    0.371    0.943 
 5007  185.075    2.692    3.098   34.391   27.427    0.371    0.943 
 5008  185.248    2.692    3.098   34.391   27.427    0.371    0.943 
 5011  185.422    2.693    3.098   34.391   27.427    0.417    0.943 
 5013  185.595    2.694    3.098   34.391   27.427    0.394    0.943 
 5014  185.769    2.694    3.098   34.392   27.427    0.394    0.943 
 5017  185.942    2.694    3.098   34.393   27.428    0.417    0.943 
 5018  186.116    2.694    3.098   34.394   27.429    0.417    0.943 
 5020  186.289    2.695    3.098   34.394   27.429    0.417    0.943 
 5022  186.463    2.695    3.098   34.395   27.430    0.417    0.943 
 5024  186.636    2.695    3.099   34.398   27.432    0.441    0.943 
 5025  186.810    2.696    3.099   34.398   27.432    0.441    0.943 
 5027  186.983    2.696    3.099   34.398   27.432    0.464    0.943 
 5029  187.157    2.696    3.099   34.398   27.432    0.417    0.943 
 5031  187.330    2.696    3.099   34.398   27.432    0.394    0.943 
 5032  187.504    2.696    3.099   34.399   27.433    0.394    0.943 
 5034  187.677    2.697    3.099   34.399   27.433    0.394    0.943 
 5037  187.851    2.697    3.099   34.399   27.433    0.371    0.943 
 5039  188.024    2.697    3.099   34.401   27.434    0.348    0.946 
 5043  188.198    2.698    3.099   34.401   27.434    0.371    0.946 
 5045  188.371    2.698    3.099   34.401   27.434    0.371    0.950 
 5050  188.545    2.699    3.099   34.401   27.434    0.371    0.950 
 5052  188.718    2.700    3.099   34.401   27.434    0.441    0.950 
 5055  188.892    2.700    3.099   34.401   27.434    0.441    0.950 
 5057  189.065    2.701    3.100   34.401   27.434    0.441    0.950 
 5059  189.239    2.701    3.100   34.402   27.435    0.441    0.946 
 5061  189.412    2.703    3.100   34.403   27.435    0.464    0.943 
 5063  189.586    2.705    3.100   34.404   27.436    0.441    0.943 
 5064  189.759    2.706    3.100   34.404   27.436    0.441    0.943 
 5066  189.933    2.708    3.101   34.404   27.436    0.394    0.939 
 5067  190.106    2.709    3.101   34.407   27.437    0.394    0.939 
 5069  190.280    2.712    3.101   34.407   27.437    0.394    0.939 
 5070  190.453    2.714    3.101   34.407   27.437    0.394    0.939 
 5071  190.627    2.714    3.101   34.410   27.440    0.394    0.939 
 5072  190.801    2.715    3.101   34.411   27.440    0.394    0.939 
 5073  190.974    2.716    3.102   34.411   27.440    0.394    0.939 
 5076  191.321    2.727    3.103   34.412   27.440    0.394    0.939 
 5077  191.495    2.729    3.103   34.412   27.440    0.394    0.939 
 5078  191.668    2.730    3.103   34.414   27.442    0.394    0.936 
 5079  191.842    2.734    3.104   34.414   27.442    0.394    0.936 
 5080  192.015    2.735    3.104   34.415   27.442    0.417    0.936 
 5081  192.189    2.735    3.104   34.416   27.443    0.394    0.936 
 5082  192.362    2.736    3.104   34.416   27.443    0.417    0.936 
 5083  192.536    2.736    3.104   34.416   27.443    0.417    0.936 
 5084  192.709    2.736    3.104   34.417   27.444    0.417    0.936 
 5086  193.056    2.737    3.104   34.418   27.444    0.441    0.939 
 5088  193.230    2.740    3.104   34.418   27.444    0.441    0.939 
 5089  193.403    2.742    3.105   34.419   27.444    0.441    0.939 
 5090  193.577    2.744    3.105   34.420   27.445    0.417    0.939 
 5091  193.750    2.746    3.105   34.420   27.445    0.417    0.939 
 5093  193.924    2.747    3.106   34.422   27.446    0.417    0.939 
 5095  194.097    2.749    3.106   34.422   27.446    0.441    0.939 
 5096  194.271    2.750    3.106   34.424   27.448    0.441    0.939 
 5098  194.444    2.751    3.106   34.425   27.448    0.441    0.943 
 5100  194.618    2.753    3.106   34.425   27.448    0.441    0.943 
 5101  194.791    2.754    3.106   34.425   27.448    0.441    0.943 
 5103  194.965    2.755    3.107   34.425   27.448    0.441    0.946 
 5105  195.138    2.756    3.107   34.425   27.448    0.417    0.946 
 5108  195.312    2.757    3.107   34.425   27.449    0.441    0.946 
 5112  195.485    2.758    3.107   34.426   27.449    0.464    0.946 
 5115  195.659    2.759    3.107   34.427   27.449    0.464    0.946 
 5117  195.832    2.759    3.107   34.427   27.449    0.441    0.946 
 5120  196.006    2.759    3.107   34.427   27.449    0.464    0.943 
 5123  196.179    2.759    3.107   34.427   27.449    0.441    0.943 
 5125  196.353    2.760    3.107   34.427   27.449    0.441    0.943 
 5126  196.526    2.760    3.107   34.428   27.450    0.464    0.943 
 5129  196.700    2.761    3.107   34.429   27.450    0.464    0.943 
 5130  196.873    2.761    3.107   34.429   27.450    0.441    0.943 
 5132  197.047    2.763    3.107   34.429   27.450    0.417    0.943 
 5134  197.220    2.763    3.108   34.429   27.451    0.417    0.943 
 5135  197.394    2.763    3.108   34.429   27.451    0.417    0.943 
 5136  197.567    2.764    3.108   34.429   27.451    0.441    0.943 
 5137  197.741    2.764    3.108   34.430   27.451    0.441    0.943 
 5139  197.914    2.765    3.108   34.430   27.451    0.441    0.943 
 5140  198.088    2.765    3.108   34.430   27.451    0.441    0.943 
 5141  198.261    2.765    3.108   34.431   27.452    0.441    0.943 
 5144  198.435    2.766    3.108   34.431   27.452    0.441    0.943 
 5145  198.608    2.766    3.108   34.431   27.452    0.417    0.943 
 5146  198.782    2.766    3.108   34.433   27.453    0.417    0.943 
 5148  198.955    2.767    3.108   34.433   27.453    0.417    0.943 
 5149  199.129    2.768    3.108   34.433   27.453    0.417    0.943 
 5150  199.302    2.768    3.108   34.432   27.453    0.441    0.943 
 5153  199.476    2.770    3.109   34.432   27.453    0.441    0.943 
 5155  199.649    2.770    3.109   34.432   27.453    0.441    0.943 
 5156  199.823    2.770    3.109   34.434   27.454    0.441    0.943 
 5159  199.996    2.771    3.109   34.434   27.454    0.441    0.943 
 5162  200.170    2.771    3.109   34.434   27.454    0.441    0.939 
 5164  200.343    2.772    3.109   34.435   27.454    0.441    0.939 
 5167  200.517    2.773    3.109   34.436   27.455    0.441    0.936 
 5169  200.690    2.773    3.109   34.436   27.455    0.441    0.936 
 5171  200.864    2.774    3.109   34.436   27.455    0.441    0.936 
 5174  201.038    2.776    3.109   34.437   27.455    0.441    0.936 
 5176  201.211    2.779    3.110   34.437   27.456    0.441    0.936 
 5178  201.385    2.784    3.110   34.437   27.456    0.441    0.936 
 5180  201.558    2.787    3.111   34.439   27.457    0.441    0.936 
 5181  201.732    2.793    3.111   34.441   27.458    0.441    0.936 
 5183  201.905    2.794    3.112   34.442   27.458    0.441    0.939 
 5184  202.079    2.796    3.112   34.442   27.458    0.441    0.939 
 5186  202.426    2.799    3.112   34.443   27.458    0.441    0.943 
 5187  202.599    2.799    3.112   34.445   27.460    0.441    0.943 
 5189  202.773    2.804    3.113   34.446   27.460    0.441    0.943 
 5190  202.946    2.805    3.113   34.447   27.461    0.464    0.943 
 5191  203.120    2.806    3.113   34.447   27.461    0.464    0.943 
 5192  203.293    2.810    3.113   34.447   27.461    0.464    0.943 
 5194  203.467    2.812    3.114   34.448   27.462    0.487    0.943 
 5195  203.814    2.813    3.114   34.450   27.463    0.487    0.943 
 5197  203.987    2.816    3.114   34.450   27.463    0.464    0.943 
 5199  204.161    2.823    3.115   34.451   27.463    0.464    0.943 
 5200  204.334    2.823    3.115   34.451   27.463    0.464    0.943 
 5201  204.508    2.823    3.115   34.452   27.463    0.487    0.943 
 5202  204.681    2.823    3.115   34.452   27.463    0.464    0.943 
 5203  204.855    2.824    3.115   34.452   27.463    0.464    0.943 
 5205  205.028    2.825    3.116   34.455   27.466    0.464    0.943 
 5206  205.202    2.826    3.116   34.455   27.466    0.487    0.943 
 5207  205.375    2.826    3.116   34.455   27.466    0.464    0.943 
 5208  205.549    2.827    3.116   34.455   27.466    0.464    0.943 
 5210  205.722    2.828    3.116   34.455   27.466    0.464    0.946 
 5212  205.896    2.829    3.116   34.455   27.466    0.464    0.946 
 5213  206.069    2.829    3.116   34.456   27.466    0.464    0.946 
 5214  206.243    2.829    3.116   34.456   27.466    0.464    0.946 
 5217  206.416    2.830    3.116   34.456   27.466    0.487    0.946 
 5219  206.590    2.830    3.116   34.458   27.467    0.464    0.946 
 5222  206.763    2.830    3.116   34.459   27.467    0.487    0.946 
 5224  206.937    2.830    3.116   34.455   27.465    0.487    0.946 
 5227  207.110    2.831    3.116   34.454   27.464    0.510    0.939 
 5229  207.284    2.831    3.116   34.454   27.464    0.510    0.936 
 5232  207.457    2.832    3.117   34.465   27.473    0.510    0.936 
 5233  207.631    2.832    3.117   34.465   27.473    0.510    0.936 
 5235  207.804    2.832    3.117   34.464   27.473    0.487    0.936 
 5237  207.978    2.832    3.117   34.464   27.473    0.487    0.936 
 5238  208.151    2.832    3.117   34.464   27.473    0.487    0.936 
 5240  208.325    2.832    3.117   34.464   27.473    0.487    0.936 
 5326  208.498    2.833    3.117   34.463   27.472    0.510    0.932 
 5332  208.672    2.833    3.117   34.463   27.471    0.534    0.932 
