NAFC_Y2K_HEADER
39673005  48 32.36 -049 56.74 2006-06-11 10:12 0224 S0281 005 V   tn 5         1
39673005 001195  8.00 A 08 #PTCSMFL------------            D 000 0000 0219 000 4
39673005 9 14 27 61 1013.0 007.0 007.0 04 06 14 04 04                          8
-- CHANNEL STATS -->
# span     scan =   2941.000,  5091.000
# span     pres =      2.809,   219.775
# span     temp =     -1.243,     5.941
# span     cond =      2.663,     3.190
# span      sal =     32.275,    34.317
# span     sigt =     25.408,    27.381
# span     flor =      0.278,     2.044
# span      par =      0.801,    67.488
-- END --
-- HISTORY --> Thu Jun 22 14:22:46 2006
>SELECT_PROBE S
>READ # (DP) T C L F scan pres temp cond par flor
>STABILIZE_RESTRICT USING= pres 10.0 5 
>RESTRICT USING= pres 0.0 2000.0
>RESTRICT USING= cond 2.0 5.0
>RESTRICT USING= temp -2.0 20.0
>RESTRICT USING= scan 500.0 30000.0
>MEDIANFILTER pres 21 1
>MEDIANFILTER temp 21 1
>MEDIANFILTER cond 21 1
>MEDIANFILTER flor 21 1
>MEDIANFILTER par 21 1
>SELECT_DN USING= pres
>SALINITY PRESSURE=pres CONDUCTIVITY=cond TEMPERATURE=temp RESULT=sal
>RESTRICT USING= sal 29.0 36.0
>MEDIANFILTER sal 21 1
>SIGMAT SALINITY=sal TEMPERATURE=temp RESULT=sigt
>MEDIANFILTER sigt 21 1
>HISTORY_ON
>WRITEFILE .p???? scan pres temp cond sal sigt flor par
-- END --
 scan     pres     temp     cond      sal     sigt     flor      par 
-- DATA --
 2941    2.809    5.936    3.189   32.275   25.408    1.765   66.743 
 2943    2.982    5.936    3.189   32.275   25.408    1.718   67.488 
 2961    3.156    5.922    3.188   32.277   25.411    0.766   66.497 
 2974    3.330    5.921    3.188   32.278   25.412    2.020   62.677 
 3004    3.503    5.929    3.189   32.282   25.414    0.766   60.179 
 3006    3.677    5.930    3.189   32.281   25.413    0.766   59.735 
 3008    3.851    5.930    3.189   32.281   25.413    0.812   59.515 
 3010    4.024    5.931    3.189   32.280   25.412    0.836   58.858 
 3012    4.198    5.931    3.189   32.280   25.412    1.997   57.994 
 3014    4.372    5.931    3.189   32.279   25.412    2.044   56.096 
 3016    4.545    5.931    3.189   32.279   25.412    2.044   53.860 
 3018    4.719    5.931    3.189   32.279   25.412    2.044   52.483 
 3020    4.893    5.931    3.189   32.279   25.412    2.044   52.097 
 3024    5.066    5.932    3.189   32.279   25.412    1.928   51.904 
 3030    5.240    5.932    3.189   32.279   25.412    1.788   50.020 
 3036    5.414    5.931    3.189   32.279   25.412    1.695   49.468 
 3042    5.587    5.931    3.189   32.279   25.412    1.649   48.922 
 3045    5.761    5.931    3.189   32.279   25.412    1.625   47.321 
 3046    5.935    5.931    3.189   32.279   25.412    1.649   46.626 
 3049    6.108    5.933    3.189   32.279   25.412    1.649   45.100 
 3050    6.282    5.935    3.190   32.279   25.412    1.649   44.603 
 3052    6.456    5.937    3.190   32.279   25.412    1.649   43.624 
 3053    6.629    5.938    3.190   32.280   25.412    1.695   43.302 
 3055    6.803    5.940    3.190   32.280   25.412    1.742   41.730 
 3056    6.977    5.940    3.190   32.280   25.412    1.811   40.966 
 3057    7.150    5.940    3.190   32.280   25.412    1.858   40.815 
 3060    7.324    5.941    3.190   32.281   25.412    1.858   39.919 
 3061    7.497    5.941    3.190   32.281   25.412    1.858   39.772 
 3063    7.671    5.941    3.190   32.281   25.412    1.858   39.333 
 3065    7.845    5.941    3.190   32.281   25.412    1.858   38.899 
 3068    8.018    5.941    3.190   32.281   25.412    1.858   38.187 
 3071    8.192    5.940    3.190   32.281   25.412    1.788   37.487 
 3075    8.366    5.939    3.190   32.281   25.412    1.718   37.349 
 3078    8.539    5.933    3.190   32.281   25.413    1.672   37.349 
 3083    8.713    5.927    3.189   32.281   25.414    1.509   37.211 
 3086    8.887    5.924    3.189   32.281   25.414    1.486   37.211 
 3089    9.060    5.922    3.189   32.282   25.415    1.370   37.073 
 3091    9.234    5.922    3.189   32.282   25.415    1.347   36.664 
 3093    9.408    5.916    3.189   32.283   25.417    1.347   35.993 
 3095    9.581    5.916    3.188   32.284   25.417    1.324   35.333 
 3096    9.755    5.915    3.188   32.284   25.418    1.300   35.073 
 3098    9.929    5.914    3.188   32.284   25.418    1.277   34.051 
 3099   10.102    5.914    3.188   32.285   25.419    1.277   33.551 
 3101   10.276    5.911    3.188   32.286   25.419    1.254   32.936 
 3102   10.450    5.911    3.188   32.286   25.419    1.254   32.453 
 3103   10.623    5.910    3.188   32.286   25.419    1.207   32.095 
 3104   10.797    5.907    3.188   32.288   25.422    1.207   31.740 
 3106   11.144    5.900    3.187   32.289   25.423    1.207   31.044 
 3107   11.318    5.873    3.186   32.291   25.428    1.161   30.701 
 3109   11.491    5.815    3.182   32.293   25.437    1.161   29.917 
 3110   11.665    5.807    3.180   32.298   25.441    1.161   29.261 
 3111   11.839    5.801    3.180   32.299   25.443    1.161   28.938 
 3112   12.012    5.800    3.179   32.300   25.444    1.138   28.408 
 3114   12.186    5.788    3.179   32.303   25.448    1.091   27.682 
 3116   12.360    5.735    3.176   32.308   25.458    1.068   27.074 
 3117   12.533    5.714    3.173   32.313   25.464    1.068   26.875 
 3118   12.707    5.680    3.171   32.317   25.471    1.068   26.677 
 3120   12.881    5.609    3.167   32.335   25.494    1.021   26.382 
 3122   13.054    5.400    3.153   32.336   25.519    0.998   26.285 
 3124   13.228    5.299    3.142   32.337   25.531    0.952   26.285 
 3128   13.402    5.290    3.140   32.345   25.538    0.952   26.285 
 3132   13.575    5.258    3.138   32.351   25.547    0.952   26.188 
 3136   13.749    5.244    3.136   32.379   25.570    0.952   25.708 
 3139   13.923    5.073    3.127   32.395   25.603    1.021   25.144 
 3142   14.096    4.783    3.103   32.398   25.637    1.021   24.867 
 3144   14.270    4.757    3.100   32.404   25.644    1.045   24.684 
 3146   14.443    4.519    3.086   32.442   25.699    1.045   24.411 
 3147   14.617    4.416    3.078   32.443   25.711    1.021   24.231 
 3148   14.791    4.335    3.070   32.446   25.722    1.021   24.053 
 3150   14.964    4.258    3.063   32.448   25.731    0.998   23.612 
 3151   15.138    4.218    3.059   32.448   25.735    0.952   23.266 
 3152   15.312    4.190    3.057   32.450   25.740    0.952   23.094 
 3153   15.485    4.169    3.055   32.454   25.745    0.952   22.839 
 3154   15.659    4.163    3.054   32.460   25.750    0.952   22.421 
 3155   15.833    4.162    3.054   32.465   25.754    0.952   22.174 
 3157   16.180    4.144    3.053   32.466   25.756    0.952   21.527 
 3159   16.354    4.070    3.050   32.466   25.764    0.928   20.977 
 3160   16.527    4.004    3.044   32.471   25.775    0.928   20.746 
 3161   16.701    3.990    3.042   32.471   25.776    0.928   20.517 
 3162   16.875    3.984    3.041   32.481   25.784    0.928   20.291 
 3163   17.048    3.959    3.039   32.486   25.791    0.928   20.067 
 3164   17.222    3.935    3.039   32.490   25.796    0.928   19.845 
 3166   17.395    3.935    3.039   32.490   25.796    0.928   19.482 
 3167   17.569    3.935    3.039   32.490   25.796    0.952   19.338 
 3170   17.743    3.935    3.039   32.490   25.796    0.975   18.844 
 3171   17.916    3.935    3.039   32.490   25.796    0.975   18.705 
 3174   18.090    3.935    3.039   32.490   25.796    0.975   18.431 
 3175   18.264    3.935    3.043   32.537   25.833    0.975   18.363 
 3178   18.437    3.938    3.044   32.545   25.840    0.975   18.093 
 3179   18.611    3.938    3.044   32.546   25.840    0.975   18.026 
 3183   18.785    3.975    3.048   32.556   25.845    0.975   17.631 
 3184   18.958    3.978    3.051   32.573   25.853    0.975   17.566 
 3186   19.132    4.004    3.052   32.574   25.856    0.952   17.244 
 3188   19.306    4.021    3.054   32.581   25.857    0.928   16.991 
 3190   19.479    4.092    3.060   32.581   25.859    0.928   16.679 
 3191   19.653    4.111    3.061   32.588   25.860    0.928   16.556 
 3194   20.000    4.111    3.064   32.609   25.873    0.928   16.074 
 3196   20.174    4.060    3.063   32.609   25.878    0.928   15.838 
 3198   20.347    4.060    3.063   32.609   25.878    0.928   15.663 
 3200   20.521    4.060    3.063   32.609   25.878    0.928   15.548 
 3201   20.695    4.060    3.063   32.609   25.878    0.928   15.490 
 3203   20.868    4.060    3.063   32.609   25.878    0.952   15.376 
 3206   21.042    3.812    3.049   32.609   25.903    0.952   15.376 
 3208   21.216    3.436    3.014   32.609   25.938    0.952   15.319 
 3210   21.389    3.220    2.995   32.609   25.957    0.952   15.207 
 3213   21.563    2.941    2.968   32.626   25.995    0.975   15.094 
 3215   21.737    2.854    2.960   32.626   25.998    0.998   15.039 
 3217   21.910    2.795    2.952   32.626   25.998    1.068   14.493 
 3219   22.084    2.744    2.948   32.608   25.998    1.114   14.227 
 3221   22.257    2.741    2.947   32.608   25.998    1.138   14.018 
 3223   22.431    2.728    2.947   32.607   26.000    1.161   13.813 
 3225   22.605    2.723    2.946   32.607   26.000    1.184   13.560 
 3226   22.778    2.706    2.946   32.607   26.001    1.207   13.360 
 3227   22.952    2.704    2.946   32.607   26.003    1.207   13.262 
 3228   23.126    2.693    2.944   32.607   26.008    1.207   13.164 
 3230   23.299    2.563    2.936   32.607   26.011    1.230   12.875 
 3231   23.473    2.537    2.932   32.607   26.014    1.230   12.733 
 3233   23.647    2.510    2.930   32.607   26.016    1.230   12.546 
 3234   23.820    2.498    2.929   32.608   26.018    1.230   12.408 
 3235   23.994    2.490    2.928   32.608   26.018    1.230   12.271 
 3236   24.168    2.487    2.928   32.609   26.020    1.254   12.181 
 3238   24.515    2.484    2.928   32.610   26.020    1.277   11.958 
 3240   24.688    2.484    2.928   32.610   26.020    1.277   11.782 
 3241   24.862    2.484    2.928   32.614   26.023    1.277   11.695 
 3243   25.036    2.468    2.928   32.616   26.026    1.277   11.481 
 3244   25.209    2.461    2.927   32.620   26.031    1.277   11.354 
 3246   25.383    2.441    2.925   32.620   26.032    1.277   11.105 
 3247   25.557    2.431    2.924   32.626   26.037    1.277   10.983 
 3249   25.904    2.413    2.924   32.632   26.040    1.277   10.781 
 3252   26.078    2.461    2.928   32.632   26.044    1.277   10.467 
 3253   26.251    2.463    2.930   32.650   26.054    1.277   10.390 
 3254   26.425    2.468    2.930   32.655   26.057    1.300   10.313 
 3256   26.598    2.468    2.933   32.682   26.079    1.324   10.087 
 3258   26.772    2.472    2.933   32.686   26.082    1.324   10.013 
 3261   26.946    2.472    2.934   32.694   26.084    1.324    9.721 
 3262   27.119    2.472    2.934   32.694   26.089    1.324    9.685 
 3265   27.293    2.601    2.947   32.701   26.089    1.324    9.578 
 3267   27.467    2.601    2.947   32.722   26.093    1.324    9.543 
 3269   27.640    2.637    2.950   32.722   26.095    1.277    9.299 
 3271   27.814    2.669    2.951   32.722   26.097    1.277    9.231 
 3273   27.988    2.696    2.955   32.722   26.098    1.254    9.196 
 3275   28.161    2.702    2.957   32.729   26.100    1.254    9.095 
 3277   28.335    2.713    2.957   32.741   26.106    1.207    8.962 
 3279   28.508    2.714    2.959   32.752   26.111    1.184    8.797 
 3280   28.682    2.714    2.959   32.752   26.112    1.161    8.765 
 3283   28.856    2.738    2.961   32.753   26.112    1.161    8.447 
 3284   29.029    2.772    2.964   32.753   26.112    1.161    8.354 
 3285   29.203    2.772    2.964   32.754   26.112    1.161    8.323 
 3286   29.377    2.772    2.964   32.754   26.112    1.184    8.231 
 3288   29.550    2.772    2.964   32.754   26.112    1.161    8.110 
 3290   29.724    2.772    2.964   32.754   26.112    1.161    7.961 
 3291   29.898    2.772    2.964   32.754   26.114    1.161    7.845 
 3293   30.071    2.772    2.964   32.754   26.115    1.114    7.758 
 3294   30.245    2.772    2.964   32.754   26.115    1.114    7.672 
 3296   30.418    2.484    2.952   32.819   26.187    1.114    7.532 
 3298   30.592    2.456    2.943   32.820   26.190    1.068    7.476 
 3299   30.766    2.379    2.942   32.830   26.205    1.068    7.476 
 3301   30.939    2.370    2.939   32.858   26.228    1.114    7.421 
 3302   31.113    2.370    2.939   32.859   26.228    1.114    7.421 
 3305   31.287    2.370    2.939   32.859   26.228    1.114    7.178 
 3307   31.460    2.370    2.939   32.859   26.228    1.114    7.099 
 3309   31.634    2.379    2.940   32.861   26.230    1.114    7.047 
 3310   31.808    2.433    2.942   32.887   26.245    1.207    6.995 
 3311   31.981    2.456    2.943   32.902   26.256    1.114    6.943 
 3314   32.155    2.466    2.959   33.006   26.338    1.068    6.816 
 3315   32.328    2.466    2.959   33.006   26.338    1.045    6.766 
 3317   32.502    2.433    2.959   33.039   26.367    1.045    6.667 
 3318   32.676    2.433    2.959   33.039   26.368    1.045    6.642 
 3319   32.849    2.433    2.959   33.039   26.368    0.998    6.593 
 3321   33.023    2.433    2.959   33.039   26.368    0.975    6.448 
 3322   33.197    2.433    2.959   33.039   26.368    0.975    6.401 
 3323   33.370    2.426    2.959   33.039   26.368    0.975    6.354 
 3324   33.544    2.426    2.959   33.039   26.368    0.905    6.260 
 3326   33.718    2.426    2.959   33.040   26.368    0.905    6.191 
 3327   33.891    2.426    2.959   33.040   26.368    0.882    6.146 
 3329   34.065    2.426    2.959   33.046   26.368    0.882    6.033 
 3330   34.238    2.426    2.959   33.046   26.368    0.882    6.011 
 3332   34.412    2.426    2.959   33.046   26.368    0.882    5.989 
 3334   34.586    2.540    2.962   33.046   26.368    0.882    5.901 
 3335   34.759    2.575    2.968   33.046   26.368    0.882    5.901 
 3338   34.933    2.584    2.971   33.046   26.368    0.859    5.836 
 3339   35.107    2.589    2.971   33.046   26.368    0.859    5.793 
 3342   35.280    2.895    2.999   33.052   26.368    0.859    5.708 
 3344   35.454    2.920    3.002   33.062   26.368    0.859    5.666 
 3347   35.627    2.923    3.004   33.072   26.368    0.859    5.603 
 3351   35.801    2.940    3.005   33.078   26.373    0.859    5.562 
 3352   35.975    2.946    3.005   33.080   26.373    0.882    5.521 
 3354   36.148    2.985    3.009   33.083   26.373    0.859    5.460 
 3355   36.322    2.985    3.012   33.116   26.383    0.859    5.400 
 3357   36.496    2.985    3.012   33.116   26.383    0.859    5.340 
 3358   36.669    2.985    3.012   33.116   26.383    0.859    5.301 
 3360   36.843    2.985    3.012   33.116   26.383    0.859    5.204 
 3361   37.017    2.985    3.012   33.116   26.383    0.859    5.165 
 3363   37.190    2.985    3.012   33.117   26.383    0.882    5.108 
 3364   37.364    2.985    3.012   33.117   26.383    0.882    5.071 
 3366   37.537    2.959    3.011   33.129   26.395    0.882    5.015 
 3367   37.711    2.937    3.009   33.131   26.398    0.905    4.978 
 3369   37.885    2.864    3.005   33.131   26.405    0.882    4.905 
 3370   38.058    2.793    3.000   33.142   26.420    0.905    4.905 
 3372   38.232    2.674    2.989   33.145   26.432    0.905    4.833 
 3373   38.406    2.636    2.985   33.146   26.436    0.928    4.797 
 3376   38.579    2.521    2.975   33.149   26.448    0.975    4.762 
 3378   38.753    2.403    2.966   33.153   26.461    0.975    4.709 
 3380   38.926    2.340    2.960   33.153   26.466    0.975    4.657 
 3381   39.100    2.285    2.956   33.153   26.470    0.905    4.640 
 3383   39.274    2.188    2.948   33.153   26.478    0.905    4.589 
 3385   39.447    2.050    2.936   33.153   26.488    0.905    4.505 
 3387   39.621    1.913    2.923   33.153   26.498    0.882    4.455 
 3388   39.795    1.775    2.916   33.149   26.506    0.882    4.406 
 3389   39.968    1.602    2.900   33.147   26.516    0.882    4.373 
 3390   40.142    1.448    2.889   33.146   26.526    0.882    4.325 
 3392   40.315    1.115    2.859   33.145   26.527    0.859    4.246 
 3393   40.489    0.957    2.848   33.145   26.529    0.859    4.199 
 3394   40.663    0.898    2.839   33.137   26.530    0.859    4.168 
 3395   40.836    0.780    2.830   33.130   26.530    0.836    4.122 
 3396   41.010    0.716    2.822   33.111   26.530    0.859    4.092 
 3397   41.184    0.678    2.818   33.100   26.530    0.836    4.047 
 3399   41.357    0.584    2.810   33.100   26.530    0.836    3.973 
 3400   41.531    0.548    2.807   33.099   26.530    0.812    3.929 
 3402   41.878    0.460    2.800   33.097   26.530    0.836    3.871 
 3405   42.052    0.047    2.766   33.096   26.530    0.812    3.786 
 3406   42.225    0.047    2.762   33.046   26.530    0.812    3.758 
 3409   42.399   -0.002    2.758   33.046   26.529    0.812    3.744 
 3415   42.573   -0.049    2.754   33.044   26.527    0.812    3.730 
 3425   42.746   -0.083    2.750   33.028   26.518    0.719    3.717 
 3427   42.920   -0.107    2.746   33.010   26.510    0.743    3.689 
 3430   43.267   -0.202    2.739   33.010   26.510    0.696    3.635 
 3432   43.441   -0.202    2.739   33.010   26.510    0.673    3.569 
 3433   43.614   -0.202    2.739   33.010   26.510    0.673    3.542 
 3435   43.788   -0.202    2.739   33.010   26.510    0.650    3.490 
 3436   43.962   -0.202    2.739   33.010   26.510    0.627    3.465 
 3437   44.135   -0.202    2.739   33.010   26.510    0.627    3.439 
 3438   44.309   -0.202    2.739   33.010   26.510    0.627    3.401 
 3439   44.482   -0.202    2.739   33.010   26.510    0.627    3.376 
 3440   44.656   -0.176    2.740   33.010   26.510    0.627    3.351 
 3441   44.830   -0.123    2.743   33.010   26.510    0.603    3.314 
 3442   45.003   -0.119    2.747   33.023   26.516    0.603    3.302 
 3443   45.177   -0.119    2.747   33.025   26.517    0.603    3.278 
 3444   45.351   -0.119    2.747   33.025   26.517    0.603    3.241 
 3446   45.698   -0.119    2.747   33.025   26.517    0.557    3.182 
 3448   45.871   -0.119    2.747   33.025   26.517    0.534    3.147 
 3449   46.045   -0.119    2.747   33.025   26.518    0.534    3.112 
 3450   46.219   -0.119    2.747   33.025   26.518    0.534    3.112 
 3452   46.392   -0.119    2.747   33.025   26.518    0.534    3.078 
 3454   46.566   -0.128    2.747   33.025   26.518    0.534    3.044 
 3455   46.740   -0.130    2.746   33.026   26.519    0.534    3.033 
 3459   46.913   -0.140    2.746   33.026   26.519    0.487    2.999 
 3461   47.087   -0.146    2.745   33.027   26.520    0.487    2.977 
 3464   47.260   -0.161    2.744   33.030   26.523    0.487    2.966 
 3465   47.434   -0.165    2.743   33.034   26.527    0.487    2.944 
 3467   47.608   -0.182    2.742   33.034   26.528    0.487    2.923 
 3469   47.781   -0.252    2.739   33.034   26.531    0.487    2.901 
 3470   47.955   -0.297    2.735   33.034   26.533    0.487    2.880 
 3473   48.129   -0.458    2.722   33.034   26.536    0.441    2.817 
 3474   48.302   -0.458    2.722   33.034   26.536    0.441    2.817 
 3476   48.476   -0.458    2.722   33.034   26.539    0.441    2.786 
 3477   48.649   -0.458    2.722   33.034   26.539    0.441    2.765 
 3479   48.823   -0.458    2.722   33.030   26.539    0.441    2.734 
 3480   48.997   -0.458    2.722   33.030   26.539    0.441    2.714 
 3482   49.170   -0.458    2.722   33.040   26.539    0.441    2.684 
 3483   49.344   -0.458    2.722   33.040   26.539    0.464    2.665 
 3485   49.518   -0.406    2.724   33.040   26.539    0.441    2.645 
 3486   49.691   -0.403    2.724   33.038   26.539    0.441    2.625 
 3489   49.865   -0.402    2.724   33.038   26.539    0.441    2.587 
 3491   50.038   -0.401    2.724   33.038   26.536    0.464    2.577 
 3493   50.212   -0.371    2.724   33.037   26.536    0.464    2.549 
 3494   50.386   -0.291    2.730   33.037   26.535    0.464    2.539 
 3495   50.559   -0.204    2.736   33.037   26.531    0.464    2.530 
 3498   50.733   -0.162    2.744   33.037   26.531    0.464    2.493 
 3500   50.906   -0.160    2.745   33.037   26.531    0.464    2.466 
 3503   51.080   -0.157    2.745   33.037   26.531    0.534    2.429 
 3504   51.254   -0.154    2.745   33.037   26.531    0.534    2.411 
 3505   51.427   -0.146    2.746   33.037   26.531    0.534    2.402 
 3508   51.601   -0.146    2.746   33.037   26.531    0.534    2.385 
 3509   51.775   -0.146    2.746   33.037   26.531    0.534    2.376 
 3512   51.948   -0.146    2.746   33.037   26.531    0.534    2.341 
 3513   52.122   -0.146    2.746   33.037   26.531    0.534    2.332 
 3515   52.295   -0.146    2.746   33.038   26.531    0.534    2.324 
 3518   52.469   -0.197    2.743   33.038   26.531    0.534    2.290 
 3522   52.643   -0.227    2.740   33.038   26.532    0.534    2.264 
 3525   52.816   -0.227    2.740   33.038   26.533    0.510    2.256 
 3527   52.990   -0.227    2.740   33.038   26.533    0.487    2.248 
 3530   53.164   -0.218    2.740   33.038   26.533    0.487    2.231 
 3531   53.337   -0.216    2.740   33.044   26.535    0.487    2.223 
 3534   53.511   -0.195    2.743   33.045   26.535    0.487    2.182 
 3535   53.684   -0.190    2.743   33.045   26.536    0.487    2.174 
 3536   53.858   -0.145    2.745   33.045   26.536    0.487    2.158 
 3537   54.032   -0.123    2.748   33.050   26.536    0.487    2.142 
 3538   54.205   -0.073    2.752   33.051   26.537    0.487    2.134 
 3539   54.379   -0.062    2.754   33.051   26.537    0.487    2.134 
 3540   54.552   -0.062    2.754   33.051   26.537    0.487    2.111 
 3542   54.726   -0.003    2.759   33.053   26.538    0.487    2.080 
 3543   55.073   -0.003    2.760   33.065   26.545    0.487    2.065 
 3544   55.247   -0.003    2.760   33.065   26.545    0.464    2.042 
 3545   55.421   -0.003    2.760   33.065   26.545    0.487    2.027 
 3546   55.594   -0.003    2.760   33.066   26.545    0.487    2.019 
 3548   55.941   -0.003    2.760   33.066   26.545    0.487    1.990 
 3549   56.115   -0.003    2.760   33.066   26.545    0.464    1.975 
 3551   56.289   -0.003    2.760   33.066   26.545    0.487    1.946 
 3552   56.462   -0.003    2.760   33.066   26.545    0.487    1.939 
 3554   56.636   -0.066    2.757   33.081   26.560    0.487    1.924 
 3555   56.809   -0.070    2.756   33.082   26.561    0.487    1.924 
 3556   56.983   -0.073    2.756   33.082   26.561    0.487    1.917 
 3560   57.157   -0.086    2.755   33.082   26.562    0.487    1.903 
 3562   57.330   -0.093    2.755   33.084   26.564    0.487    1.903 
 3565   57.504   -0.097    2.754   33.085   26.565    0.487    1.889 
 3570   57.678   -0.101    2.754   33.087   26.567    0.487    1.882 
 3573   57.851   -0.104    2.753   33.088   26.568    0.487    1.868 
 3576   58.025   -0.105    2.753   33.089   26.568    0.487    1.862 
 3578   58.198   -0.105    2.753   33.091   26.570    0.487    1.848 
 3579   58.372   -0.105    2.753   33.094   26.572    0.487    1.848 
 3581   58.546   -0.107    2.753   33.096   26.574    0.487    1.827 
 3582   58.719   -0.130    2.753   33.102   26.580    0.487    1.821 
 3584   58.893   -0.160    2.750   33.107   26.585    0.487    1.801 
 3585   59.066   -0.179    2.749   33.109   26.588    0.464    1.787 
 3586   59.240   -0.199    2.748   33.109   26.589    0.464    1.781 
 3587   59.414   -0.214    2.746   33.114   26.594    0.464    1.774 
 3588   59.587   -0.233    2.745   33.116   26.596    0.464    1.768 
 3589   59.761   -0.251    2.744   33.117   26.598    0.464    1.748 
 3590   59.935   -0.272    2.742   33.118   26.599    0.464    1.748 
 3591   60.108   -0.293    2.741   33.120   26.602    0.464    1.729 
 3592   60.282   -0.310    2.739   33.126   26.608    0.464    1.722 
 3593   60.455   -0.343    2.738   33.136   26.617    0.487    1.697 
 3594   60.629   -0.401    2.734   33.136   26.620    0.487    1.697 
 3595   60.803   -0.459    2.729   33.136   26.622    0.464    1.691 
 3596   60.976   -0.524    2.725   33.136   26.625    0.464    1.678 
 3597   61.150   -0.690    2.716   33.136   26.632    0.487    1.666 
 3598   61.323   -0.849    2.701   33.136   26.635    0.464    1.660 
 3600   61.497   -0.977    2.688   33.136   26.635    0.464    1.641 
 3602   61.671   -1.038    2.682   33.136   26.635    0.487    1.623 
 3603   61.844   -1.051    2.681   33.136   26.636    0.487    1.623 
 3604   62.018   -1.065    2.679   33.136   26.636    0.487    1.612 
 3606   62.191   -1.094    2.677   33.136   26.636    0.487    1.605 
 3608   62.365   -1.113    2.674   33.124   26.636    0.487    1.594 
 3611   62.539   -1.141    2.672   33.124   26.636    0.464    1.582 
 3613   62.712   -1.153    2.671   33.121   26.636    0.464    1.582 
 3615   62.886   -1.175    2.669   33.121   26.636    0.464    1.570 
 3618   63.060   -1.212    2.666   33.121   26.636    0.464    1.553 
 3621   63.233   -1.222    2.665   33.118   26.636    0.441    1.547 
 3623   63.407   -1.231    2.664   33.118   26.636    0.441    1.541 
 3626   63.580   -1.243    2.663   33.118   26.635    0.441    1.530 
 3627   63.754   -1.243    2.663   33.118   26.635    0.441    1.525 
 3629   63.928   -1.243    2.663   33.118   26.635    0.441    1.513 
 3631   64.101   -1.243    2.663   33.116   26.634    0.441    1.508 
 3632   64.275   -1.243    2.663   33.114   26.633    0.441    1.508 
 3634   64.448   -1.243    2.663   33.114   26.632    0.441    1.491 
 3636   64.622   -1.243    2.663   33.114   26.632    0.441    1.486 
 3637   64.796   -1.242    2.663   33.114   26.632    0.441    1.480 
 3639   64.969   -1.240    2.663   33.114   26.632    0.441    1.469 
 3640   65.143   -1.238    2.664   33.114   26.632    0.441    1.469 
 3641   65.316   -1.237    2.664   33.114   26.632    0.441    1.464 
 3643   65.490   -1.236    2.664   33.114   26.632    0.441    1.453 
 3644   65.664   -1.236    2.664   33.114   26.632    0.441    1.448 
 3647   65.837   -1.234    2.664   33.114   26.632    0.441    1.437 
 3649   66.011   -1.232    2.664   33.114   26.632    0.441    1.426 
 3650   66.184   -1.232    2.664   33.114   26.632    0.441    1.426 
 3652   66.358   -1.230    2.664   33.114   26.632    0.441    1.421 
 3654   66.532   -1.229    2.664   33.114   26.632    0.441    1.416 
 3657   66.705   -1.227    2.664   33.114   26.632    0.441    1.411 
 3659   66.879   -1.227    2.665   33.116   26.632    0.441    1.405 
 3661   67.052   -1.226    2.665   33.116   26.632    0.441    1.400 
 3664   67.226   -1.224    2.665   33.115   26.632    0.441    1.390 
 3665   67.400   -1.224    2.665   33.114   26.633    0.441    1.385 
 3668   67.573   -1.220    2.665   33.114   26.633    0.441    1.380 
 3669   67.747   -1.220    2.665   33.114   26.634    0.441    1.375 
 3670   67.921   -1.219    2.665   33.115   26.634    0.441    1.375 
 3672   68.094   -1.218    2.665   33.118   26.635    0.441    1.364 
 3673   68.268   -1.217    2.665   33.118   26.635    0.441    1.354 
 3674   68.441   -1.216    2.666   33.118   26.635    0.441    1.349 
 3675   68.615   -1.215    2.666   33.120   26.637    0.441    1.349 
 3676   68.789   -1.213    2.666   33.120   26.637    0.441    1.344 
 3677   68.962   -1.210    2.666   33.121   26.637    0.441    1.339 
 3678   69.136   -1.209    2.666   33.121   26.637    0.441    1.334 
 3679   69.309   -1.207    2.667   33.121   26.637    0.441    1.330 
 3680   69.483   -1.207    2.667   33.122   26.638    0.441    1.325 
 3681   69.657   -1.206    2.667   33.122   26.638    0.441    1.320 
 3682   69.830   -1.205    2.667   33.124   26.639    0.441    1.310 
 3683   70.004   -1.204    2.667   33.125   26.640    0.441    1.305 
 3684   70.177   -1.204    2.667   33.125   26.640    0.441    1.300 
 3685   70.351   -1.202    2.668   33.128   26.642    0.441    1.300 
 3686   70.525   -1.202    2.668   33.129   26.643    0.441    1.291 
 3687   70.698   -1.201    2.668   33.130   26.644    0.441    1.286 
 3688   70.872   -1.200    2.668   33.131   26.645    0.441    1.286 
 3689   71.045   -1.199    2.668   33.132   26.646    0.441    1.277 
 3691   71.219   -1.198    2.668   33.132   26.646    0.441    1.272 
 3692   71.393   -1.197    2.669   33.135   26.648    0.441    1.272 
 3693   71.566   -1.197    2.669   33.135   26.648    0.441    1.267 
 3697   71.740   -1.196    2.669   33.136   26.649    0.441    1.258 
 3698   71.913   -1.196    2.669   33.138   26.651    0.441    1.253 
 3702   72.087   -1.196    2.669   33.138   26.651    0.441    1.253 
 3706   72.261   -1.196    2.669   33.139   26.651    0.441    1.249 
 3711   72.434   -1.194    2.669   33.139   26.651    0.441    1.244 
 3713   72.608   -1.193    2.669   33.140   26.652    0.441    1.239 
 3715   72.781   -1.193    2.669   33.140   26.652    0.441    1.235 
 3717   72.955   -1.192    2.670   33.141   26.653    0.441    1.230 
 3719   73.129   -1.192    2.670   33.141   26.653    0.441    1.226 
 3721   73.476   -1.191    2.670   33.141   26.653    0.441    1.217 
 3722   73.649   -1.191    2.670   33.141   26.653    0.441    1.212 
 3723   73.823   -1.191    2.670   33.141   26.653    0.441    1.208 
 3724   73.997   -1.191    2.670   33.141   26.653    0.417    1.208 
 3726   74.344   -1.191    2.670   33.142   26.654    0.417    1.199 
 3727   74.517   -1.190    2.670   33.143   26.654    0.417    1.194 
 3729   74.865   -1.189    2.670   33.144   26.655    0.417    1.190 
 3730   75.038   -1.188    2.670   33.145   26.656    0.417    1.186 
 3731   75.212   -1.188    2.670   33.145   26.656    0.417    1.186 
 3732   75.385   -1.188    2.670   33.145   26.656    0.417    1.181 
 3733   75.559   -1.187    2.670   33.145   26.656    0.394    1.181 
 3735   75.733   -1.187    2.670   33.145   26.656    0.417    1.168 
 3736   75.906   -1.187    2.670   33.145   26.656    0.417    1.168 
 3737   76.080   -1.187    2.671   33.145   26.656    0.417    1.164 
 3739   76.253   -1.177    2.671   33.146   26.656    0.417    1.160 
 3740   76.427   -1.168    2.672   33.146   26.657    0.417    1.160 
 3742   76.601   -1.135    2.675   33.149   26.657    0.417    1.151 
 3744   76.774   -1.122    2.676   33.149   26.658    0.417    1.147 
 3746   76.948   -1.122    2.676   33.150   26.658    0.417    1.147 
 3749   77.121   -1.080    2.680   33.153   26.659    0.417    1.143 
 3751   77.295   -1.058    2.681   33.157   26.662    0.441    1.143 
 3756   77.469   -1.022    2.685   33.161   26.664    0.417    1.138 
 3757   77.642   -1.019    2.686   33.171   26.672    0.417    1.138 
 3759   77.816   -1.012    2.687   33.176   26.676    0.417    1.134 
 3762   77.989   -1.012    2.687   33.177   26.676    0.417    1.130 
 3764   78.163   -1.012    2.687   33.177   26.676    0.417    1.126 
 3765   78.337   -1.012    2.687   33.177   26.676    0.417    1.126 
 3767   78.510   -1.012    2.687   33.177   26.676    0.417    1.122 
 3769   78.684   -1.013    2.687   33.177   26.677    0.441    1.117 
 3770   78.857   -1.015    2.687   33.180   26.678    0.417    1.117 
 3772   79.031   -1.016    2.687   33.180   26.679    0.417    1.109 
 3773   79.205   -1.016    2.687   33.181   26.679    0.417    1.109 
 3774   79.378   -1.017    2.687   33.181   26.680    0.417    1.109 
 3775   79.552   -1.019    2.687   33.183   26.682    0.441    1.109 
 3776   79.725   -1.019    2.687   33.184   26.682    0.441    1.101 
 3777   79.899   -1.020    2.687   33.184   26.682    0.464    1.101 
 3779   80.073   -1.020    2.687   33.184   26.683    0.464    1.097 
 3780   80.246   -1.021    2.687   33.185   26.683    0.441    1.097 
 3781   80.420   -1.021    2.687   33.185   26.683    0.441    1.093 
 3782   80.593   -1.025    2.687   33.190   26.687    0.441    1.093 
 3784   80.941   -1.028    2.687   33.193   26.689    0.441    1.085 
 3786   81.114   -1.028    2.687   33.193   26.689    0.441    1.081 
 3787   81.461   -1.030    2.687   33.193   26.690    0.394    1.077 
 3789   81.635   -1.031    2.687   33.193   26.690    0.394    1.077 
 3790   81.809   -1.032    2.687   33.194   26.691    0.394    1.073 
 3792   81.982   -1.032    2.687   33.195   26.691    0.394    1.073 
 3793   82.156   -1.032    2.687   33.196   26.692    0.417    1.065 
 3795   82.329   -1.032    2.687   33.196   26.692    0.417    1.065 
 3796   82.503   -1.032    2.687   33.196   26.693    0.417    1.061 
 3797   82.677   -1.032    2.687   33.196   26.693    0.441    1.061 
 3799   82.850   -1.034    2.687   33.196   26.693    0.394    1.061 
 3802   83.024   -1.039    2.686   33.196   26.693    0.417    1.053 
 3804   83.197   -1.041    2.686   33.197   26.693    0.417    1.053 
 3806   83.371   -1.043    2.686   33.197   26.694    0.417    1.049 
 3809   83.545   -1.046    2.686   33.198   26.695    0.417    1.046 
 3811   83.718   -1.047    2.686   33.198   26.695    0.417    1.046 
 3813   83.892   -1.047    2.686   33.198   26.695    0.417    1.042 
 3815   84.065   -1.047    2.686   33.198   26.695    0.417    1.042 
 3817   84.239   -1.048    2.686   33.198   26.695    0.417    1.042 
 3820   84.413   -1.048    2.686   33.198   26.695    0.417    1.034 
 3821   84.586   -1.049    2.686   33.198   26.695    0.417    1.034 
 3823   84.760   -1.049    2.686   33.198   26.695    0.417    1.034 
 3825   84.933   -1.049    2.686   33.198   26.695    0.417    1.030 
 3827   85.107   -1.049    2.686   33.198   26.695    0.417    1.030 
 3828   85.280   -1.049    2.686   33.198   26.695    0.417    1.026 
 3830   85.454   -1.049    2.686   33.199   26.695    0.417    1.026 
 3831   85.628   -1.049    2.686   33.199   26.695    0.417    1.026 
 3833   85.801   -1.049    2.686   33.199   26.695    0.417    1.023 
 3836   85.975   -1.046    2.686   33.199   26.695    0.417    1.019 
 3837   86.148   -1.037    2.686   33.200   26.695    0.417    1.019 
 3839   86.322   -1.002    2.689   33.200   26.695    0.417    1.015 
 3841   86.496   -0.928    2.695   33.200   26.695    0.417    1.015 
 3843   86.669   -0.849    2.701   33.200   26.695    0.394    1.015 
 3846   86.843   -0.794    2.706   33.200   26.695    0.394    1.011 
 3847   87.016   -0.746    2.709   33.200   26.696    0.394    1.011 
 3849   87.190   -0.644    2.720   33.212   26.696    0.394    1.008 
 3851   87.364   -0.613    2.724   33.217   26.696    0.394    1.004 
 3852   87.537   -0.595    2.726   33.229   26.702    0.394    1.004 
 3854   87.711   -0.525    2.731   33.232   26.703    0.394    1.000 
 3856   87.884   -0.481    2.735   33.234   26.703    0.417    1.000 
 3857   88.058   -0.404    2.740   33.239   26.703    0.417    1.000 
 3858   88.232   -0.380    2.745   33.252   26.713    0.417    0.996 
 3859   88.405   -0.377    2.746   33.254   26.714    0.417    0.996 
 3861   88.579   -0.316    2.750   33.257   26.714    0.417    0.993 
 3862   88.752   -0.278    2.753   33.264   26.718    0.417    0.993 
 3863   88.926   -0.240    2.757   33.267   26.719    0.417    0.993 
 3864   89.100   -0.240    2.760   33.303   26.747    0.417    0.993 
 3865   89.273   -0.240    2.760   33.303   26.748    0.441    0.989 
 3867   89.620   -0.240    2.760   33.303   26.748    0.441    0.989 
 3869   89.794   -0.240    2.760   33.303   26.748    0.441    0.985 
 3871   89.967   -0.240    2.760   33.303   26.748    0.464    0.982 
 3872   90.141   -0.240    2.760   33.303   26.748    0.464    0.982 
 3873   90.315   -0.240    2.760   33.304   26.748    0.464    0.982 
 3875   90.488   -0.294    2.759   33.326   26.769    0.464    0.978 
 3876   90.662   -0.371    2.755   33.332   26.777    0.464    0.978 
 3878   90.835   -0.420    2.747   33.336   26.782    0.464    0.978 
 3879   91.009   -0.453    2.747   33.336   26.784    0.464    0.978 
 3881   91.183   -0.523    2.740   33.336   26.786    0.464    0.978 
 3882   91.356   -0.562    2.737   33.336   26.788    0.464    0.978 
 3884   91.530   -0.614    2.732   33.336   26.790    0.464    0.978 
 3886   91.703   -0.682    2.726   33.336   26.793    0.464    0.978 
 3888   91.877   -0.755    2.721   33.338   26.797    0.464    0.978 
 3889   92.051   -0.786    2.719   33.338   26.799    0.464    0.978 
 3891   92.224   -0.877    2.712   33.340   26.804    0.464    0.978 
 3893   92.571   -0.894    2.709   33.340   26.804    0.464    0.978 
 3896   92.745   -0.894    2.709   33.340   26.804    0.441    0.978 
 3897   92.918   -0.894    2.709   33.342   26.806    0.441    0.975 
 3898   93.092   -0.894    2.709   33.342   26.806    0.417    0.975 
 3900   93.266   -0.894    2.709   33.342   26.806    0.417    0.975 
 3902   93.439   -0.894    2.709   33.342   26.806    0.441    0.971 
 3904   93.613   -0.889    2.710   33.342   26.806    0.441    0.967 
 3905   93.786   -0.886    2.710   33.343   26.806    0.441    0.967 
 3908   93.960   -0.882    2.710   33.343   26.806    0.441    0.967 
 3910   94.134   -0.876    2.711   33.343   26.807    0.441    0.964 
 3913   94.307   -0.872    2.712   33.343   26.807    0.441    0.964 
 3915   94.481   -0.870    2.712   33.344   26.807    0.441    0.964 
 3918   94.654   -0.868    2.712   33.345   26.807    0.441    0.960 
 3919   94.828   -0.868    2.712   33.346   26.808    0.441    0.960 
 3922   95.001   -0.864    2.712   33.347   26.808    0.441    0.960 
 3924   95.175   -0.863    2.713   33.347   26.808    0.417    0.957 
 3925   95.349   -0.861    2.713   33.349   26.810    0.417    0.957 
 3928   95.522   -0.856    2.713   33.350   26.811    0.417    0.953 
 3929   95.696   -0.855    2.713   33.351   26.812    0.417    0.953 
 3930   95.869   -0.854    2.713   33.351   26.812    0.417    0.953 
 3931   96.043   -0.853    2.714   33.352   26.812    0.417    0.953 
 3933   96.217   -0.852    2.714   33.352   26.812    0.417    0.950 
 3934   96.390   -0.851    2.714   33.353   26.813    0.417    0.950 
 3936   96.564   -0.850    2.714   33.353   26.813    0.417    0.950 
 3937   96.737   -0.850    2.714   33.354   26.814    0.417    0.950 
 3938   96.911   -0.849    2.714   33.354   26.814    0.417    0.946 
 3939   97.085   -0.848    2.714   33.354   26.814    0.417    0.946 
 3941   97.258   -0.845    2.715   33.355   26.815    0.464    0.943 
 3942   97.432   -0.843    2.715   33.356   26.816    0.464    0.943 
 3943   97.605   -0.842    2.715   33.357   26.816    0.441    0.943 
 3945   97.779   -0.840    2.715   33.357   26.816    0.441    0.943 
 3946   97.952   -0.838    2.715   33.357   26.816    0.441    0.943 
 3948   98.126   -0.837    2.716   33.357   26.816    0.441    0.939 
 3951   98.300   -0.832    2.716   33.358   26.816    0.417    0.939 
 3952   98.473   -0.831    2.716   33.358   26.816    0.417    0.939 
 3954   98.647   -0.824    2.717   33.359   26.817    0.417    0.936 
 3956   98.820   -0.821    2.717   33.360   26.818    0.417    0.936 
 3959   99.168   -0.819    2.717   33.360   26.818    0.417    0.932 
 3961   99.341   -0.814    2.718   33.363   26.820    0.417    0.932 
 3963   99.515   -0.808    2.719   33.364   26.821    0.394    0.932 
 3965   99.688   -0.781    2.720   33.365   26.821    0.394    0.932 
 3967   99.862   -0.720    2.725   33.372   26.824    0.394    0.929 
 3969  100.209   -0.684    2.731   33.395   26.841    0.394    0.929 
 3971  100.383   -0.658    2.733   33.397   26.841    0.417    0.929 
 3973  100.556   -0.637    2.736   33.405   26.847    0.441    0.925 
 3974  100.730   -0.634    2.737   33.412   26.852    0.441    0.925 
 3975  100.903   -0.619    2.737   33.422   26.860    0.394    0.925 
 3977  101.077   -0.587    2.741   33.423   26.860    0.394    0.922 
 3978  101.250   -0.577    2.742   33.426   26.861    0.394    0.922 
 3980  101.424   -0.564    2.744   33.430   26.865    0.394    0.925 
 3981  101.598   -0.561    2.744   33.435   26.868    0.394    0.925 
 3982  101.771   -0.557    2.744   33.436   26.869    0.394    0.925 
 3984  101.945   -0.545    2.746   33.438   26.870    0.394    0.925 
 3985  102.118   -0.538    2.746   33.438   26.870    0.394    0.925 
 3987  102.292   -0.528    2.747   33.444   26.874    0.394    0.925 
 3989  102.639   -0.518    2.749   33.449   26.878    0.417    0.936 
 3991  102.813   -0.517    2.749   33.450   26.879    0.394    0.936 
 3992  102.986   -0.515    2.749   33.453   26.880    0.394    0.939 
 3993  103.160   -0.512    2.750   33.453   26.880    0.394    0.939 
 3995  103.333   -0.490    2.751   33.454   26.880    0.417    0.939 
 3996  103.507   -0.481    2.752   33.455   26.881    0.417    0.939 
 3997  103.681   -0.471    2.753   33.459   26.884    0.394    0.939 
 3999  103.854   -0.459    2.755   33.460   26.884    0.417    0.939 
 4000  104.028   -0.451    2.755   33.462   26.885    0.417    0.939 
 4002  104.201   -0.447    2.756   33.466   26.889    0.417    0.936 
 4003  104.375   -0.445    2.756   33.468   26.889    0.417    0.936 
 4005  104.722   -0.417    2.758   33.468   26.889    0.417    0.936 
 4008  104.896   -0.411    2.759   33.468   26.890    0.417    0.936 
 4009  105.069   -0.410    2.760   33.474   26.894    0.394    0.936 
 4012  105.243   -0.408    2.760   33.475   26.894    0.394    0.932 
 4013  105.416   -0.405    2.760   33.478   26.896    0.394    0.932 
 4016  105.590   -0.355    2.765   33.481   26.896    0.394    0.932 
 4018  105.764   -0.344    2.765   33.481   26.897    0.394    0.932 
 4019  105.937   -0.340    2.766   33.483   26.898    0.394    0.932 
 4021  106.111   -0.326    2.767   33.484   26.898    0.394    0.932 
 4023  106.284   -0.318    2.768   33.485   26.898    0.394    0.932 
 4025  106.458   -0.316    2.769   33.486   26.899    0.394    0.929 
 4026  106.631   -0.316    2.769   33.490   26.902    0.394    0.929 
 4028  106.805   -0.305    2.769   33.492   26.903    0.394    0.925 
 4030  106.979   -0.298    2.770   33.494   26.905    0.371    0.922 
 4031  107.152   -0.282    2.772   33.496   26.905    0.371    0.922 
 4032  107.326   -0.280    2.772   33.496   26.906    0.371    0.922 
 4033  107.499   -0.276    2.772   33.496   26.906    0.394    0.919 
 4035  107.673   -0.254    2.774   33.499   26.906    0.394    0.919 
 4036  107.846   -0.250    2.775   33.501   26.908    0.394    0.919 
 4038  108.020   -0.237    2.776   33.502   26.908    0.394    0.919 
 4039  108.194   -0.236    2.776   33.503   26.909    0.394    0.915 
 4040  108.367   -0.227    2.777   33.504   26.909    0.394    0.915 
 4042  108.541   -0.221    2.778   33.510   26.914    0.394    0.915 
 4043  108.714   -0.209    2.779   33.510   26.914    0.394    0.908 
 4045  108.888   -0.202    2.780   33.514   26.916    0.371    0.898 
 4047  109.061   -0.200    2.780   33.516   26.917    0.394    0.898 
 4050  109.235   -0.191    2.781   33.516   26.918    0.394    0.898 
 4051  109.409   -0.190    2.781   33.517   26.918    0.417    0.898 
 4056  109.582   -0.181    2.782   33.519   26.919    0.371    0.898 
 4058  109.756   -0.170    2.783   33.520   26.920    0.371    0.898 
 4059  109.929   -0.163    2.784   33.523   26.922    0.371    0.898 
 4062  110.103   -0.149    2.785   33.526   26.923    0.371    0.898 
 4064  110.277   -0.129    2.787   33.528   26.924    0.371    0.898 
 4066  110.450   -0.111    2.789   33.535   26.929    0.371    0.895 
 4067  110.624   -0.102    2.790   33.538   26.931    0.371    0.895 
 4068  110.797   -0.093    2.791   33.541   26.933    0.371    0.895 
 4069  110.971   -0.083    2.792   33.543   26.934    0.371    0.895 
 4070  111.144   -0.076    2.793   33.543   26.934    0.371    0.895 
 4072  111.492   -0.069    2.794   33.549   26.938    0.394    0.892 
 4073  111.665   -0.059    2.794   33.554   26.942    0.394    0.892 
 4075  111.839   -0.034    2.797   33.555   26.942    0.394    0.892 
 4076  112.012   -0.024    2.798   33.557   26.943    0.417    0.892 
 4077  112.186   -0.019    2.799   33.561   26.946    0.417    0.892 
 4078  112.533   -0.016    2.799   33.565   26.949    0.417    0.889 
 4080  112.707    0.003    2.801   33.567   26.949    0.394    0.889 
 4081  112.880    0.012    2.802   33.570   26.951    0.394    0.889 
 4082  113.054    0.018    2.803   33.577   26.956    0.394    0.889 
 4083  113.227    0.025    2.804   33.579   26.958    0.394    0.889 
 4084  113.401    0.028    2.804   33.582   26.960    0.394    0.889 
 4086  113.574    0.041    2.806   33.587   26.964    0.371    0.889 
 4087  113.748    0.044    2.806   33.588   26.964    0.348    0.889 
 4089  113.922    0.052    2.807   33.591   26.966    0.348    0.889 
 4090  114.095    0.052    2.807   33.592   26.967    0.348    0.889 
 4092  114.269    0.055    2.807   33.592   26.967    0.348    0.889 
 4094  114.442    0.057    2.808   33.593   26.968    0.348    0.889 
 4097  114.616    0.060    2.808   33.596   26.970    0.348    0.889 
 4099  114.789    0.062    2.808   33.596   26.970    0.348    0.889 
 4101  114.963    0.064    2.809   33.599   26.972    0.348    0.889 
 4103  115.137    0.068    2.809   33.600   26.972    0.348    0.892 
 4106  115.310    0.071    2.809   33.600   26.972    0.348    0.895 
 4107  115.484    0.074    2.810   33.604   26.976    0.371    0.895 
 4109  115.657    0.080    2.810   33.606   26.977    0.371    0.895 
 4110  115.831    0.085    2.811   33.607   26.978    0.371    0.895 
 4112  116.004    0.095    2.812   33.608   26.978    0.348    0.895 
 4113  116.178    0.108    2.813   33.609   26.978    0.348    0.895 
 4115  116.352    0.119    2.814   33.609   26.978    0.371    0.895 
 4116  116.525    0.126    2.815   33.615   26.981    0.371    0.895 
 4117  116.699    0.131    2.816   33.622   26.987    0.348    0.895 
 4119  117.046    0.143    2.817   33.622   26.987    0.394    0.895 
 4121  117.219    0.164    2.819   33.623   26.987    0.394    0.895 
 4122  117.393    0.175    2.820   33.625   26.987    0.394    0.895 
 4123  117.567    0.181    2.821   33.626   26.988    0.348    0.895 
 4124  117.740    0.181    2.821   33.630   26.991    0.394    0.895 
 4126  117.914    0.184    2.822   33.633   26.993    0.394    0.895 
 4127  118.087    0.184    2.822   33.633   26.993    0.394    0.895 
 4128  118.261    0.190    2.822   33.636   26.995    0.394    0.895 
 4130  118.434    0.231    2.825   33.642   26.995    0.394    0.892 
 4131  118.608    0.285    2.829   33.642   26.998    0.394    0.892 
 4132  118.781    0.306    2.833   33.653   27.003    0.394    0.892 
 4134  118.955    0.312    2.834   33.659   27.008    0.394    0.889 
 4137  119.129    0.313    2.835   33.660   27.008    0.324    0.889 
 4140  119.302    0.345    2.837   33.662   27.009    0.348    0.889 
 4144  119.476    0.354    2.839   33.671   27.015    0.324    0.885 
 4148  119.649    0.378    2.842   33.677   27.018    0.324    0.885 
 4151  119.823    0.403    2.843   33.678   27.018    0.324    0.885 
 4153  119.996    0.442    2.845   33.688   27.024    0.324    0.885 
 4155  120.170    0.476    2.850   33.691   27.024    0.324    0.885 
 4157  120.344    0.485    2.852   33.697   27.028    0.348    0.885 
 4158  120.517    0.487    2.852   33.702   27.033    0.371    0.885 
 4159  120.691    0.492    2.852   33.703   27.033    0.371    0.885 
 4160  120.864    0.498    2.853   33.703   27.033    0.371    0.885 
 4161  121.038    0.509    2.854   33.704   27.033    0.348    0.885 
 4162  121.211    0.522    2.855   33.705   27.033    0.371    0.889 
 4163  121.385    0.525    2.856   33.709   27.036    0.371    0.889 
 4164  121.559    0.526    2.856   33.711   27.038    0.371    0.892 
 4165  121.732    0.528    2.856   33.712   27.039    0.371    0.892 
 4166  121.906    0.530    2.857   33.713   27.039    0.371    0.892 
 4167  122.079    0.531    2.857   33.714   27.040    0.371    0.892 
 4168  122.426    0.531    2.857   33.717   27.042    0.371    0.892 
 4169  122.600    0.531    2.857   33.717   27.042    0.371    0.892 
 4171  122.773    0.531    2.857   33.718   27.043    0.371    0.898 
 4172  122.947    0.531    2.857   33.718   27.043    0.371    0.898 
 4173  123.121    0.531    2.857   33.718   27.043    0.371    0.898 
 4174  123.294    0.532    2.857   33.718   27.043    0.371    0.898 
 4175  123.468    0.534    2.857   33.718   27.043    0.371    0.898 
 4177  123.641    0.535    2.857   33.719   27.043    0.371    0.898 
 4179  123.815    0.536    2.858   33.720   27.044    0.348    0.898 
 4181  123.988    0.540    2.858   33.721   27.044    0.348    0.895 
 4186  124.162    0.543    2.858   33.723   27.046    0.348    0.892 
 4191  124.336    0.544    2.859   33.724   27.047    0.324    0.892 
 4194  124.509    0.544    2.859   33.725   27.048    0.324    0.892 
 4198  124.856    0.545    2.859   33.726   27.049    0.324    0.892 
 4201  125.030    0.555    2.860   33.728   27.049    0.348    0.889 
 4202  125.203    0.558    2.860   33.729   27.050    0.324    0.892 
 4203  125.377    0.560    2.860   33.729   27.050    0.324    0.892 
 4204  125.551    0.561    2.860   33.729   27.050    0.324    0.892 
 4205  125.724    0.563    2.861   33.730   27.050    0.348    0.892 
 4206  126.071    0.566    2.861   33.730   27.050    0.348    0.892 
 4208  126.418    0.574    2.862   33.733   27.050    0.348    0.892 
 4209  126.765    0.586    2.863   33.734   27.050    0.371    0.892 
 4210  126.939    0.597    2.864   33.734   27.051    0.371    0.892 
 4211  127.113    0.608    2.865   33.734   27.051    0.371    0.892 
 4212  127.286    0.626    2.866   33.734   27.052    0.371    0.892 
 4213  127.633    0.646    2.868   33.735   27.052    0.371    0.892 
 4214  127.807    0.669    2.870   33.736   27.052    0.371    0.892 
 4215  127.980    0.684    2.872   33.743   27.054    0.371    0.892 
 4216  128.154    0.695    2.873   33.744   27.054    0.371    0.892 
 4217  128.327    0.698    2.874   33.744   27.054    0.371    0.892 
 4218  128.501    0.701    2.874   33.750   27.059    0.348    0.892 
 4219  128.675    0.703    2.875   33.754   27.061    0.348    0.892 
 4221  128.848    0.716    2.876   33.754   27.062    0.348    0.889 
 4222  129.022    0.730    2.876   33.760   27.064    0.348    0.889 
 4223  129.195    0.757    2.879   33.761   27.064    0.348    0.889 
 4225  129.369    0.784    2.882   33.763   27.065    0.348    0.889 
 4228  129.542    0.802    2.885   33.770   27.068    0.348    0.889 
 4231  129.716    0.802    2.885   33.777   27.074    0.324    0.885 
 4240  129.890    0.808    2.886   33.782   27.078    0.348    0.882 
 4243  130.063    0.808    2.886   33.782   27.078    0.324    0.882 
 4246  130.237    0.825    2.886   33.787   27.079    0.301    0.882 
 4248  130.410    0.866    2.890   33.788   27.079    0.301    0.882 
 4249  130.584    0.880    2.892   33.788   27.081    0.301    0.882 
 4250  130.757    0.895    2.894   33.797   27.084    0.301    0.882 
 4252  130.931    0.910    2.896   33.804   27.090    0.301    0.882 
 4253  131.278    0.923    2.897   33.806   27.090    0.278    0.882 
 4255  131.452    0.941    2.899   33.811   27.093    0.301    0.882 
 4256  131.625    0.945    2.900   33.814   27.095    0.301    0.882 
 4257  131.799    0.946    2.900   33.814   27.095    0.301    0.882 
 4258  131.972    0.949    2.900   33.815   27.096    0.301    0.882 
 4259  132.146    0.955    2.901   33.815   27.096    0.348    0.882 
 4260  132.319    0.960    2.901   33.815   27.096    0.348    0.882 
 4261  132.493    0.961    2.901   33.818   27.097    0.348    0.882 
 4262  132.666    0.963    2.902   33.819   27.098    0.348    0.882 
 4263  132.840    0.966    2.902   33.819   27.098    0.348    0.882 
 4264  133.014    0.968    2.902   33.821   27.099    0.348    0.879 
 4266  133.187    0.975    2.903   33.821   27.099    0.348    0.879 
 4267  133.361    0.983    2.903   33.824   27.099    0.348    0.879 
 4268  133.534    0.995    2.904   33.824   27.099    0.348    0.879 
 4270  133.708    1.022    2.907   33.825   27.100    0.348    0.879 
 4271  133.881    1.033    2.908   33.825   27.101    0.348    0.879 
 4273  134.055    1.040    2.909   33.830   27.102    0.348    0.879 
 4274  134.228    1.043    2.910   33.838   27.107    0.348    0.879 
 4276  134.402    1.066    2.912   33.839   27.108    0.324    0.879 
 4277  134.576    1.068    2.912   33.840   27.108    0.324    0.879 
 4280  134.749    1.079    2.913   33.840   27.108    0.301    0.875 
 4281  134.923    1.084    2.914   33.846   27.112    0.301    0.875 
 4283  135.096    1.100    2.916   33.847   27.112    0.301    0.875 
 4284  135.270    1.107    2.916   33.854   27.117    0.301    0.875 
 4286  135.443    1.116    2.918   33.858   27.119    0.301    0.875 
 4287  135.617    1.117    2.918   33.861   27.122    0.301    0.875 
 4289  135.790    1.132    2.919   33.862   27.122    0.278    0.872 
 4290  135.964    1.138    2.920   33.863   27.122    0.278    0.872 
 4292  136.138    1.147    2.921   33.864   27.123    0.278    0.872 
 4293  136.311    1.150    2.921   33.865   27.123    0.278    0.872 
 4295  136.485    1.160    2.922   33.867   27.124    0.301    0.872 
 4297  136.658    1.175    2.924   33.871   27.126    0.301    0.872 
 4299  136.832    1.184    2.925   33.873   27.127    0.324    0.872 
 4300  137.005    1.188    2.925   33.875   27.128    0.348    0.872 
 4301  137.179    1.190    2.925   33.877   27.130    0.371    0.872 
 4303  137.352    1.196    2.926   33.877   27.130    0.371    0.872 
 4305  137.526    1.204    2.927   33.881   27.132    0.348    0.872 
 4307  137.700    1.206    2.928   33.892   27.141    0.348    0.869 
 4310  137.873    1.210    2.929   33.895   27.143    0.348    0.869 
 4312  138.047    1.212    2.929   33.896   27.144    0.348    0.869 
 4315  138.220    1.213    2.929   33.898   27.145    0.371    0.869 
 4316  138.394    1.214    2.929   33.900   27.147    0.348    0.869 
 4320  138.567    1.216    2.930   33.900   27.147    0.348    0.869 
 4322  138.741    1.217    2.930   33.900   27.147    0.348    0.866 
 4324  138.914    1.217    2.930   33.902   27.148    0.348    0.866 
 4326  139.088    1.218    2.930   33.903   27.149    0.348    0.866 
 4328  139.262    1.219    2.930   33.904   27.150    0.371    0.866 
 4330  139.435    1.221    2.930   33.905   27.150    0.371    0.866 
 4331  139.609    1.221    2.930   33.906   27.151    0.371    0.866 
 4333  139.782    1.221    2.931   33.906   27.151    0.371    0.866 
 4334  139.956    1.221    2.931   33.906   27.151    0.394    0.866 
 4336  140.129    1.221    2.931   33.906   27.151    0.371    0.866 
 4337  140.303    1.221    2.931   33.908   27.153    0.371    0.863 
 4339  140.476    1.221    2.931   33.909   27.153    0.371    0.863 
 4340  140.650    1.221    2.931   33.910   27.153    0.371    0.863 
 4341  140.823    1.221    2.931   33.910   27.153    0.371    0.863 
 4342  140.997    1.223    2.931   33.911   27.154    0.371    0.863 
 4343  141.171    1.223    2.931   33.911   27.154    0.371    0.863 
 4345  141.344    1.226    2.931   33.912   27.154    0.371    0.863 
 4346  141.518    1.227    2.931   33.912   27.154    0.371    0.863 
 4347  141.691    1.227    2.931   33.912   27.154    0.348    0.863 
 4348  141.865    1.245    2.933   33.912   27.154    0.348    0.863 
 4349  142.038    1.259    2.934   33.912   27.154    0.348    0.863 
 4350  142.212    1.263    2.935   33.912   27.155    0.348    0.863 
 4352  142.385    1.274    2.936   33.912   27.155    0.348    0.863 
 4353  142.559    1.295    2.937   33.915   27.156    0.348    0.863 
 4355  142.733    1.311    2.939   33.917   27.156    0.348    0.863 
 4356  142.906    1.327    2.940   33.917   27.156    0.348    0.863 
 4357  143.080    1.339    2.943   33.934   27.166    0.348    0.863 
 4358  143.253    1.352    2.944   33.936   27.166    0.348    0.863 
 4360  143.427    1.355    2.945   33.937   27.167    0.348    0.863 
 4362  143.600    1.365    2.946   33.944   27.172    0.348    0.859 
 4366  143.774    1.368    2.947   33.946   27.173    0.348    0.859 
 4370  143.947    1.370    2.947   33.947   27.174    0.324    0.859 
 4375  144.121    1.373    2.947   33.949   27.176    0.324    0.859 
 4379  144.294    1.396    2.948   33.953   27.177    0.324    0.856 
 4380  144.468    1.410    2.950   33.955   27.178    0.324    0.856 
 4382  144.642    1.418    2.952   33.957   27.179    0.324    0.856 
 4383  144.815    1.421    2.952   33.959   27.180    0.324    0.856 
 4384  144.989    1.424    2.952   33.961   27.181    0.324    0.856 
 4386  145.162    1.437    2.954   33.962   27.182    0.348    0.856 
 4387  145.336    1.446    2.954   33.964   27.182    0.348    0.856 
 4388  145.509    1.453    2.955   33.964   27.182    0.348    0.856 
 4389  145.683    1.458    2.956   33.968   27.185    0.348    0.856 
 4390  146.030    1.466    2.956   33.971   27.187    0.348    0.856 
 4391  146.203    1.473    2.958   33.980   27.193    0.348    0.856 
 4392  146.377    1.473    2.959   33.987   27.199    0.348    0.856 
 4393  146.551    1.475    2.959   33.989   27.201    0.371    0.856 
 4394  146.724    1.475    2.959   33.990   27.201    0.371    0.856 
 4395  146.898    1.475    2.959   33.990   27.201    0.348    0.856 
 4396  147.071    1.475    2.959   33.990   27.201    0.348    0.856 
 4397  147.245    1.475    2.959   33.990   27.201    0.348    0.856 
 4398  147.418    1.475    2.959   33.990   27.201    0.348    0.856 
 4399  147.592    1.475    2.959   33.990   27.201    0.348    0.856 
 4401  147.765    1.477    2.959   33.992   27.203    0.348    0.856 
 4402  147.939    1.477    2.960   33.999   27.209    0.348    0.856 
 4404  148.286    1.477    2.960   34.000   27.209    0.348    0.856 
 4406  148.460    1.477    2.960   34.000   27.209    0.324    0.853 
 4408  148.633    1.477    2.960   34.000   27.209    0.324    0.853 
 4412  148.807    1.480    2.961   34.008   27.216    0.324    0.853 
 4414  148.980    1.486    2.962   34.009   27.216    0.324    0.853 
 4418  149.154    1.488    2.962   34.011   27.217    0.324    0.853 
 4421  149.327    1.492    2.962   34.013   27.218    0.324    0.853 
 4423  149.501    1.493    2.963   34.013   27.219    0.324    0.853 
 4426  149.674    1.497    2.963   34.014   27.219    0.324    0.853 
 4428  149.848    1.498    2.963   34.015   27.219    0.324    0.850 
 4430  150.195    1.501    2.963   34.015   27.219    0.324    0.850 
 4432  150.369    1.504    2.964   34.015   27.219    0.324    0.850 
 4433  150.542    1.506    2.964   34.015   27.220    0.324    0.850 
 4434  150.716    1.506    2.964   34.016   27.220    0.324    0.850 
 4435  150.889    1.506    2.964   34.017   27.221    0.324    0.850 
 4437  151.063    1.508    2.964   34.018   27.221    0.324    0.850 
 4438  151.236    1.510    2.964   34.018   27.221    0.324    0.850 
 4439  151.410    1.512    2.965   34.018   27.221    0.324    0.850 
 4440  151.583    1.514    2.965   34.018   27.221    0.324    0.847 
 4441  151.757    1.519    2.965   34.020   27.221    0.324    0.847 
 4442  151.930    1.538    2.966   34.021   27.222    0.324    0.847 
 4443  152.104    1.552    2.968   34.022   27.222    0.324    0.847 
 4444  152.278    1.560    2.969   34.023   27.222    0.324    0.847 
 4445  152.451    1.569    2.970   34.024   27.222    0.324    0.847 
 4446  152.625    1.576    2.971   34.029   27.226    0.324    0.847 
 4447  152.798    1.579    2.972   34.034   27.229    0.324    0.847 
 4448  152.972    1.580    2.972   34.038   27.232    0.348    0.847 
 4450  153.145    1.583    2.972   34.039   27.233    0.324    0.844 
 4453  153.492    1.585    2.973   34.040   27.234    0.348    0.844 
 4458  153.666    1.588    2.973   34.041   27.234    0.324    0.844 
 4463  153.839    1.588    2.973   34.041   27.234    0.324    0.844 
 4467  154.013    1.589    2.973   34.045   27.237    0.371    0.844 
 4470  154.186    1.594    2.974   34.046   27.238    0.348    0.844 
 4471  154.360    1.595    2.974   34.046   27.238    0.348    0.844 
 4474  154.534    1.600    2.975   34.047   27.238    0.348    0.844 
 4475  154.707    1.606    2.975   34.050   27.240    0.348    0.844 
 4476  154.881    1.610    2.976   34.052   27.241    0.348    0.844 
 4477  155.054    1.611    2.976   34.053   27.242    0.348    0.844 
 4478  155.228    1.614    2.976   34.054   27.242    0.348    0.844 
 4479  155.401    1.621    2.977   34.054   27.242    0.348    0.844 
 4480  155.748    1.624    2.977   34.055   27.242    0.348    0.844 
 4482  156.095    1.633    2.978   34.055   27.243    0.371    0.844 
 4483  156.269    1.637    2.979   34.055   27.243    0.371    0.844 
 4484  156.442    1.641    2.979   34.058   27.244    0.371    0.844 
 4485  156.616    1.645    2.980   34.059   27.244    0.371    0.844 
 4486  156.963    1.655    2.980   34.063   27.247    0.371    0.844 
 4487  157.137    1.668    2.982   34.064   27.247    0.371    0.844 
 4488  157.310    1.677    2.983   34.066   27.247    0.371    0.844 
 4489  157.484    1.682    2.983   34.066   27.247    0.371    0.844 
 4490  157.657    1.692    2.984   34.067   27.248    0.371    0.844 
 4491  157.831    1.710    2.985   34.069   27.248    0.371    0.844 
 4492  158.004    1.719    2.987   34.071   27.249    0.371    0.844 
 4493  158.178    1.727    2.988   34.074   27.250    0.371    0.844 
 4494  158.351    1.727    2.988   34.076   27.252    0.371    0.844 
 4495  158.525    1.729    2.988   34.077   27.252    0.371    0.841 
 4496  158.698    1.745    2.989   34.078   27.252    0.371    0.841 
 4497  158.872    1.751    2.990   34.078   27.253    0.371    0.841 
 4499  159.046    1.769    2.992   34.083   27.254    0.371    0.841 
 4501  159.219    1.776    2.993   34.083   27.254    0.371    0.841 
 4503  159.393    1.780    2.993   34.087   27.257    0.371    0.841 
 4506  159.566    1.794    2.995   34.089   27.258    0.371    0.841 
 4509  159.740    1.796    2.995   34.091   27.258    0.348    0.841 
 4513  159.913    1.816    2.997   34.093   27.259    0.324    0.837 
 4517  160.087    1.829    2.998   34.093   27.259    0.371    0.837 
 4519  160.260    1.832    2.998   34.094   27.259    0.371    0.837 
 4521  160.434    1.846    3.000   34.095   27.259    0.324    0.837 
 4523  160.607    1.849    3.000   34.096   27.259    0.324    0.837 
 4525  160.781    1.856    3.001   34.098   27.260    0.324    0.837 
 4526  160.954    1.861    3.001   34.099   27.260    0.324    0.837 
 4527  161.128    1.867    3.002   34.099   27.260    0.324    0.837 
 4528  161.302    1.876    3.003   34.101   27.261    0.324    0.837 
 4529  161.475    1.892    3.004   34.101   27.261    0.324    0.837 
 4530  161.649    1.905    3.005   34.104   27.261    0.324    0.837 
 4532  161.996    1.929    3.008   34.107   27.261    0.301    0.837 
 4533  162.169    1.935    3.009   34.109   27.263    0.301    0.837 
 4534  162.343    1.943    3.009   34.115   27.267    0.324    0.837 
 4536  162.516    1.951    3.011   34.115   27.267    0.324    0.837 
 4537  162.690    1.958    3.011   34.117   27.267    0.324    0.837 
 4538  162.863    1.965    3.012   34.119   27.268    0.324    0.837 
 4539  163.037    1.968    3.012   34.120   27.269    0.324    0.837 
 4540  163.210    1.978    3.013   34.123   27.270    0.324    0.837 
 4542  163.384    1.990    3.015   34.125   27.271    0.324    0.834 
 4544  163.557    2.007    3.016   34.125   27.271    0.324    0.834 
 4546  163.731    2.020    3.018   34.131   27.273    0.324    0.834 
 4548  163.905    2.030    3.018   34.131   27.274    0.324    0.834 
 4552  164.078    2.036    3.019   34.136   27.276    0.324    0.834 
 4556  164.252    2.053    3.021   34.137   27.276    0.324    0.834 
 4560  164.425    2.060    3.022   34.141   27.279    0.324    0.834 
 4563  164.599    2.063    3.023   34.142   27.280    0.371    0.831 
 4565  164.772    2.084    3.024   34.147   27.282    0.371    0.831 
 4567  164.946    2.090    3.025   34.148   27.282    0.348    0.831 
 4569  165.119    2.095    3.026   34.150   27.283    0.371    0.831 
 4570  165.293    2.097    3.026   34.151   27.283    0.348    0.831 
 4571  165.466    2.101    3.026   34.151   27.284    0.348    0.831 
 4572  165.640    2.104    3.027   34.152   27.284    0.348    0.831 
 4574  165.813    2.110    3.027   34.154   27.285    0.348    0.831 
 4575  165.987    2.112    3.028   34.156   27.287    0.348    0.831 
 4576  166.160    2.116    3.028   34.157   27.287    0.348    0.831 
 4577  166.334    2.121    3.028   34.158   27.287    0.348    0.831 
 4578  166.507    2.126    3.029   34.160   27.289    0.348    0.831 
 4579  166.681    2.133    3.030   34.162   27.289    0.348    0.831 
 4580  166.855    2.145    3.031   34.162   27.289    0.348    0.831 
 4581  167.028    2.151    3.032   34.163   27.290    0.348    0.831 
 4582  167.202    2.153    3.032   34.165   27.290    0.348    0.831 
 4583  167.375    2.155    3.032   34.165   27.290    0.348    0.831 
 4584  167.549    2.159    3.033   34.166   27.290    0.324    0.831 
 4585  167.722    2.162    3.033   34.166   27.291    0.324    0.831 
 4586  168.069    2.163    3.033   34.167   27.291    0.324    0.831 
 4588  168.243    2.169    3.034   34.168   27.291    0.348    0.831 
 4590  168.590    2.176    3.034   34.168   27.291    0.348    0.831 
 4592  168.763    2.210    3.037   34.171   27.291    0.348    0.831 
 4593  168.937    2.234    3.039   34.173   27.292    0.348    0.831 
 4596  169.110    2.280    3.045   34.190   27.300    0.324    0.831 
 4597  169.284    2.288    3.046   34.194   27.303    0.324    0.831 
 4599  169.457    2.298    3.047   34.195   27.303    0.301    0.828 
 4601  169.631    2.305    3.048   34.198   27.305    0.324    0.828 
 4605  169.805    2.307    3.048   34.200   27.306    0.324    0.828 
 4607  169.978    2.310    3.049   34.202   27.308    0.324    0.828 
 4610  170.152    2.312    3.049   34.205   27.309    0.324    0.828 
 4613  170.325    2.314    3.049   34.207   27.311    0.301    0.828 
 4615  170.499    2.316    3.050   34.207   27.311    0.324    0.828 
 4617  170.672    2.318    3.050   34.209   27.312    0.324    0.828 
 4618  170.846    2.319    3.050   34.210   27.312    0.324    0.828 
 4621  171.019    2.332    3.051   34.211   27.313    0.324    0.828 
 4622  171.193    2.338    3.052   34.212   27.313    0.324    0.828 
 4624  171.366    2.352    3.053   34.212   27.313    0.301    0.828 
 4625  171.540    2.362    3.054   34.213   27.313    0.301    0.828 
 4627  171.713    2.390    3.057   34.219   27.315    0.301    0.828 
 4628  171.887    2.398    3.059   34.233   27.325    0.301    0.828 
 4630  172.060    2.419    3.061   34.235   27.325    0.324    0.828 
 4631  172.234    2.435    3.062   34.237   27.326    0.324    0.825 
 4632  172.407    2.454    3.065   34.249   27.333    0.301    0.825 
 4633  172.581    2.461    3.066   34.254   27.337    0.301    0.825 
 4634  172.755    2.464    3.067   34.259   27.340    0.301    0.825 
 4636  172.928    2.468    3.067   34.263   27.343    0.324    0.828 
 4637  173.102    2.468    3.068   34.263   27.343    0.324    0.825 
 4638  173.275    2.469    3.068   34.266   27.346    0.324    0.825 
 4639  173.449    2.470    3.068   34.269   27.348    0.324    0.825 
 4640  173.622    2.472    3.068   34.269   27.348    0.324    0.825 
 4641  173.796    2.475    3.068   34.269   27.348    0.324    0.825 
 4643  173.969    2.477    3.069   34.270   27.348    0.324    0.825 
 4644  174.143    2.477    3.069   34.270   27.348    0.324    0.825 
 4646  174.316    2.479    3.069   34.271   27.349    0.324    0.825 
 4648  174.490    2.479    3.069   34.271   27.349    0.348    0.825 
 4650  174.663    2.479    3.069   34.271   27.349    0.348    0.825 
 4653  174.837    2.479    3.069   34.271   27.349    0.371    0.825 
 4654  175.010    2.479    3.069   34.271   27.349    0.371    0.825 
 4657  175.184    2.480    3.069   34.273   27.350    0.348    0.825 
 4658  175.357    2.480    3.069   34.273   27.350    0.348    0.825 
 4662  175.531    2.482    3.070   34.275   27.351    0.371    0.825 
 4664  175.704    2.483    3.070   34.276   27.352    0.371    0.825 
 4666  175.878    2.485    3.070   34.278   27.354    0.417    0.822 
 4667  176.051    2.486    3.070   34.278   27.354    0.371    0.822 
 4669  176.225    2.494    3.071   34.279   27.354    0.371    0.822 
 4670  176.399    2.500    3.072   34.284   27.358    0.371    0.822 
 4671  176.572    2.507    3.073   34.285   27.358    0.371    0.822 
 4672  176.746    2.508    3.073   34.286   27.358    0.371    0.822 
 4674  176.919    2.510    3.073   34.288   27.360    0.394    0.822 
 4675  177.093    2.510    3.073   34.289   27.360    0.394    0.822 
 4676  177.266    2.511    3.074   34.289   27.360    0.394    0.822 
 4677  177.440    2.514    3.074   34.291   27.362    0.394    0.822 
 4678  177.613    2.516    3.074   34.293   27.364    0.394    0.822 
 4679  177.787    2.518    3.074   34.297   27.366    0.394    0.822 
 4680  177.960    2.518    3.075   34.297   27.366    0.394    0.822 
 4682  178.307    2.519    3.075   34.297   27.366    0.394    0.822 
 4684  178.481    2.520    3.075   34.297   27.366    0.394    0.822 
 4686  178.654    2.520    3.075   34.297   27.366    0.394    0.822 
 4687  178.828    2.520    3.075   34.297   27.366    0.371    0.822 
 4689  179.001    2.520    3.075   34.297   27.366    0.371    0.822 
 4693  179.175    2.521    3.075   34.298   27.367    0.348    0.822 
 4696  179.348    2.521    3.075   34.299   27.367    0.348    0.822 
 4703  179.522    2.521    3.075   34.299   27.367    0.324    0.819 
 4709  179.695    2.521    3.075   34.299   27.367    0.324    0.816 
 4711  179.869    2.522    3.075   34.300   27.368    0.324    0.816 
 4712  180.042    2.522    3.075   34.300   27.368    0.324    0.813 
 4715  180.216    2.526    3.076   34.301   27.368    0.324    0.813 
 4716  180.563    2.526    3.076   34.301   27.369    0.324    0.810 
 4718  180.737    2.527    3.076   34.302   27.370    0.324    0.810 
 4719  180.910    2.527    3.076   34.302   27.370    0.324    0.810 
 4720  181.257    2.527    3.076   34.302   27.370    0.371    0.810 
 4722  181.604    2.528    3.076   34.303   27.371    0.371    0.810 
 4723  181.951    2.528    3.076   34.304   27.371    0.324    0.810 
 4724  182.125    2.528    3.077   34.312   27.377    0.348    0.810 
 4725  182.298    2.528    3.077   34.312   27.377    0.371    0.810 
 4726  182.645    2.528    3.077   34.312   27.377    0.348    0.810 
 4727  182.819    2.528    3.077   34.312   27.377    0.371    0.810 
 4728  182.992    2.528    3.077   34.312   27.377    0.348    0.810 
 4729  183.166    2.528    3.077   34.312   27.377    0.348    0.810 
 4730  183.513    2.528    3.077   34.312   27.377    0.348    0.810 
 4731  183.686    2.528    3.077   34.312   27.377    0.348    0.810 
 4732  183.860    2.528    3.077   34.312   27.377    0.371    0.810 
 4733  184.033    2.528    3.077   34.312   27.377    0.371    0.810 
 4734  184.207    2.528    3.077   34.312   27.377    0.371    0.810 
 4735  184.380    2.528    3.077   34.312   27.377    0.348    0.810 
 4736  184.554    2.528    3.077   34.312   27.377    0.371    0.810 
 4737  184.728    2.528    3.077   34.312   27.377    0.371    0.810 
 4739  184.901    2.528    3.077   34.312   27.377    0.371    0.810 
 4740  185.075    2.528    3.077   34.312   27.377    0.371    0.810 
 4743  185.248    2.528    3.077   34.312   27.377    0.348    0.810 
 4753  185.422    2.526    3.077   34.312   27.377    0.348    0.807 
 4761  185.595    2.526    3.077   34.311   27.377    0.348    0.807 
 4763  185.769    2.527    3.077   34.311   27.377    0.348    0.807 
 4765  185.942    2.527    3.077   34.311   27.377    0.348    0.810 
 4767  186.116    2.527    3.077   34.311   27.377    0.348    0.810 
 4768  186.289    2.527    3.077   34.311   27.377    0.348    0.810 
 4769  186.463    2.527    3.077   34.311   27.377    0.348    0.810 
 4771  186.810    2.528    3.077   34.310   27.376    0.348    0.810 
 4773  186.983    2.528    3.077   34.310   27.376    0.348    0.810 
 4774  187.157    2.528    3.077   34.310   27.376    0.348    0.810 
 4775  187.330    2.528    3.077   34.310   27.376    0.348    0.810 
 4776  187.504    2.528    3.077   34.310   27.376    0.348    0.810 
 4777  187.677    2.528    3.077   34.310   27.375    0.348    0.810 
 4778  187.851    2.528    3.077   34.310   27.375    0.348    0.810 
 4779  188.024    2.528    3.077   34.309   27.375    0.348    0.810 
 4781  188.198    2.528    3.077   34.309   27.375    0.371    0.810 
 4782  188.545    2.528    3.077   34.309   27.375    0.371    0.810 
 4785  188.718    2.528    3.077   34.309   27.375    0.371    0.810 
 4786  188.892    2.528    3.077   34.309   27.375    0.371    0.810 
 4787  189.065    2.528    3.077   34.309   27.375    0.348    0.810 
 4790  189.239    2.528    3.077   34.309   27.375    0.348    0.810 
 4791  189.412    2.528    3.077   34.309   27.375    0.348    0.810 
 4793  189.586    2.529    3.077   34.308   27.374    0.348    0.810 
 4795  189.759    2.529    3.077   34.307   27.374    0.348    0.810 
 4798  189.933    2.529    3.077   34.307   27.374    0.348    0.810 
 4800  190.106    2.529    3.077   34.307   27.374    0.371    0.810 
 4801  190.280    2.530    3.077   34.306   27.372    0.371    0.810 
 4803  190.453    2.530    3.077   34.306   27.372    0.371    0.810 
 4804  190.627    2.530    3.077   34.306   27.372    0.371    0.810 
 4806  190.801    2.530    3.077   34.306   27.372    0.371    0.810 
 4807  190.974    2.530    3.077   34.306   27.372    0.371    0.810 
 4808  191.148    2.530    3.077   34.306   27.372    0.371    0.810 
 4810  191.321    2.530    3.077   34.306   27.372    0.371    0.810 
 4811  191.495    2.530    3.077   34.306   27.372    0.371    0.810 
 4812  191.668    2.530    3.077   34.306   27.372    0.371    0.810 
 4813  191.842    2.530    3.077   34.306   27.372    0.371    0.810 
 4814  192.015    2.530    3.077   34.306   27.372    0.371    0.810 
 4816  192.189    2.530    3.077   34.306   27.372    0.371    0.810 
 4817  192.362    2.530    3.077   34.306   27.372    0.371    0.810 
 4818  192.536    2.530    3.077   34.306   27.372    0.371    0.810 
 4819  192.709    2.530    3.078   34.314   27.379    0.371    0.810 
 4820  192.883    2.531    3.078   34.314   27.379    0.371    0.810 
 4822  193.056    2.531    3.078   34.314   27.379    0.348    0.810 
 4823  193.230    2.531    3.078   34.314   27.379    0.348    0.810 
 4825  193.403    2.531    3.078   34.314   27.379    0.348    0.810 
 4827  193.577    2.531    3.078   34.314   27.379    0.348    0.810 
 4829  193.750    2.532    3.078   34.314   27.379    0.348    0.810 
 4832  193.924    2.532    3.078   34.314   27.379    0.348    0.810 
 4833  194.097    2.532    3.078   34.314   27.379    0.348    0.810 
 4837  194.271    2.532    3.078   34.314   27.379    0.348    0.810 
 4839  194.444    2.532    3.078   34.314   27.379    0.348    0.810 
 4841  194.618    2.532    3.078   34.314   27.379    0.348    0.810 
 4843  194.791    2.532    3.078   34.314   27.378    0.348    0.810 
 4845  194.965    2.532    3.078   34.314   27.378    0.348    0.810 
 4847  195.138    2.532    3.078   34.314   27.378    0.348    0.810 
 4848  195.312    2.532    3.078   34.313   27.378    0.348    0.810 
 4849  195.485    2.532    3.078   34.313   27.378    0.371    0.810 
 4851  195.659    2.532    3.078   34.313   27.378    0.371    0.810 
 4852  195.832    2.532    3.078   34.313   27.378    0.371    0.810 
 4853  196.006    2.532    3.078   34.313   27.378    0.371    0.810 
 4855  196.179    2.532    3.078   34.313   27.378    0.371    0.810 
 4856  196.526    2.532    3.078   34.313   27.378    0.371    0.810 
 4857  196.700    2.532    3.078   34.313   27.378    0.371    0.810 
 4859  196.873    2.532    3.078   34.313   27.378    0.348    0.810 
 4860  197.047    2.532    3.078   34.312   27.377    0.348    0.810 
 4861  197.220    2.532    3.078   34.312   27.377    0.348    0.810 
 4862  197.394    2.532    3.078   34.312   27.377    0.348    0.810 
 4863  197.567    2.532    3.078   34.312   27.377    0.348    0.810 
 4865  197.741    2.532    3.078   34.312   27.377    0.371    0.810 
 4866  197.914    2.532    3.078   34.312   27.377    0.371    0.810 
 4867  198.088    2.532    3.078   34.312   27.377    0.371    0.810 
 4869  198.261    2.532    3.078   34.312   27.377    0.371    0.810 
 4871  198.435    2.532    3.078   34.312   27.377    0.371    0.810 
 4872  198.608    2.532    3.078   34.312   27.377    0.348    0.810 
 4875  198.782    2.532    3.078   34.312   27.377    0.371    0.810 
 4876  198.955    2.532    3.078   34.311   27.377    0.371    0.810 
 4881  199.129    2.532    3.078   34.311   27.377    0.394    0.810 
 4882  199.302    2.532    3.078   34.311   27.376    0.394    0.810 
 4884  199.476    2.532    3.078   34.311   27.376    0.371    0.810 
 4887  199.649    2.532    3.078   34.311   27.376    0.371    0.810 
 4888  199.823    2.532    3.078   34.311   27.376    0.371    0.810 
 4889  199.996    2.532    3.078   34.311   27.376    0.371    0.810 
 4892  200.170    2.532    3.078   34.311   27.376    0.371    0.810 
 4893  200.343    2.532    3.078   34.311   27.376    0.371    0.810 
 4894  200.517    2.532    3.078   34.311   27.376    0.371    0.810 
 4896  200.690    2.532    3.078   34.310   27.376    0.371    0.810 
 4897  200.864    2.532    3.078   34.310   27.376    0.371    0.810 
 4898  201.038    2.532    3.078   34.310   27.376    0.371    0.810 
 4899  201.211    2.532    3.078   34.310   27.376    0.371    0.810 
 4900  201.385    2.532    3.078   34.310   27.375    0.371    0.810 
 4902  201.558    2.532    3.078   34.310   27.375    0.371    0.810 
 4903  201.732    2.532    3.078   34.310   27.375    0.371    0.810 
 4904  201.905    2.532    3.078   34.310   27.375    0.371    0.810 
 4905  202.079    2.532    3.078   34.310   27.375    0.371    0.810 
 4906  202.252    2.532    3.078   34.310   27.375    0.371    0.810 
 4908  202.426    2.532    3.078   34.309   27.375    0.371    0.810 
 4910  202.599    2.532    3.078   34.309   27.375    0.371    0.810 
 4911  202.773    2.532    3.078   34.309   27.375    0.348    0.810 
 4913  202.946    2.532    3.078   34.309   27.375    0.348    0.810 
 4914  203.120    2.532    3.078   34.309   27.375    0.324    0.807 
 4916  203.293    2.532    3.078   34.309   27.375    0.324    0.807 
 4921  203.467    2.532    3.078   34.309   27.375    0.348    0.807 
 4925  203.640    2.532    3.078   34.309   27.375    0.371    0.807 
 4928  203.814    2.532    3.078   34.309   27.374    0.324    0.807 
 4931  203.987    2.532    3.078   34.309   27.374    0.348    0.807 
 4932  204.161    2.532    3.078   34.309   27.374    0.348    0.807 
 4934  204.334    2.533    3.078   34.308   27.374    0.371    0.807 
 4936  204.508    2.533    3.078   34.308   27.373    0.371    0.807 
 4937  204.681    2.533    3.078   34.307   27.373    0.371    0.807 
 4938  204.855    2.533    3.078   34.307   27.373    0.371    0.807 
 4939  205.028    2.533    3.078   34.307   27.373    0.348    0.807 
 4940  205.202    2.533    3.078   34.307   27.373    0.324    0.807 
 4941  205.375    2.533    3.078   34.307   27.373    0.324    0.807 
 4942  205.549    2.533    3.078   34.307   27.373    0.348    0.807 
 4943  205.722    2.532    3.078   34.307   27.373    0.348    0.807 
 4944  205.896    2.532    3.078   34.307   27.373    0.348    0.807 
 4945  206.069    2.532    3.078   34.307   27.373    0.348    0.807 
 4946  206.243    2.532    3.078   34.307   27.373    0.348    0.807 
 4947  206.416    2.532    3.078   34.308   27.374    0.348    0.807 
 4948  206.590    2.532    3.078   34.308   27.374    0.348    0.807 
 4949  206.763    2.531    3.078   34.308   27.374    0.348    0.807 
 4950  206.937    2.530    3.078   34.309   27.375    0.348    0.807 
 4952  207.284    2.530    3.078   34.309   27.375    0.348    0.807 
 4954  207.457    2.530    3.078   34.309   27.375    0.371    0.807 
 4955  207.631    2.530    3.078   34.309   27.375    0.371    0.807 
 4957  207.804    2.529    3.078   34.309   27.375    0.348    0.807 
 4958  207.978    2.529    3.078   34.309   27.375    0.348    0.807 
 4959  208.151    2.529    3.078   34.309   27.375    0.348    0.807 
 4962  208.325    2.529    3.078   34.309   27.375    0.371    0.807 
 4965  208.498    2.529    3.078   34.309   27.375    0.348    0.807 
 4967  208.672    2.529    3.078   34.309   27.375    0.348    0.807 
 4970  208.845    2.529    3.078   34.309   27.375    0.348    0.807 
 4972  209.019    2.528    3.078   34.309   27.375    0.348    0.807 
 4974  209.192    2.528    3.078   34.309   27.375    0.348    0.807 
 4976  209.366    2.528    3.078   34.309   27.375    0.324    0.807 
 4977  209.539    2.528    3.078   34.309   27.375    0.324    0.807 
 4979  209.713    2.528    3.078   34.309   27.375    0.324    0.807 
 4980  209.886    2.528    3.078   34.309   27.375    0.324    0.807 
 4982  210.060    2.528    3.078   34.309   27.375    0.324    0.807 
 4983  210.233    2.528    3.078   34.309   27.375    0.324    0.807 
 4984  210.407    2.528    3.078   34.309   27.375    0.324    0.807 
 4985  210.580    2.528    3.078   34.309   27.375    0.324    0.807 
 4986  210.754    2.528    3.078   34.309   27.375    0.324    0.807 
 4988  211.101    2.528    3.078   34.309   27.375    0.324    0.807 
 4990  211.274    2.528    3.078   34.309   27.375    0.324    0.804 
 4991  211.448    2.528    3.078   34.309   27.375    0.324    0.804 
 4992  211.621    2.529    3.078   34.308   27.374    0.324    0.804 
 4994  211.795    2.529    3.078   34.308   27.374    0.324    0.807 
 4995  211.968    2.529    3.078   34.308   27.374    0.324    0.807 
 4996  212.142    2.529    3.078   34.308   27.374    0.324    0.807 
 4998  212.315    2.529    3.078   34.308   27.374    0.324    0.804 
 4999  212.489    2.529    3.078   34.308   27.374    0.324    0.804 
 5001  212.662    2.529    3.078   34.308   27.374    0.348    0.804 
 5003  212.836    2.529    3.078   34.308   27.374    0.348    0.804 
 5005  213.009    2.529    3.078   34.308   27.374    0.348    0.804 
 5009  213.182    2.530    3.078   34.308   27.374    0.348    0.804 
 5012  213.356    2.530    3.078   34.308   27.374    0.371    0.804 
 5016  213.529    2.530    3.079   34.317   27.381    0.394    0.804 
 5017  213.703    2.530    3.079   34.317   27.381    0.371    0.804 
 5020  213.876    2.530    3.079   34.317   27.381    0.371    0.804 
 5022  214.050    2.530    3.079   34.317   27.381    0.371    0.804 
 5024  214.223    2.530    3.079   34.317   27.381    0.394    0.804 
 5025  214.397    2.530    3.079   34.317   27.381    0.394    0.804 
 5027  214.570    2.530    3.079   34.317   27.381    0.394    0.804 
 5028  214.744    2.530    3.079   34.317   27.381    0.394    0.804 
 5029  214.917    2.530    3.079   34.317   27.381    0.394    0.804 
 5030  215.091    2.530    3.079   34.317   27.381    0.394    0.804 
 5031  215.264    2.530    3.079   34.317   27.381    0.394    0.804 
 5032  215.438    2.530    3.079   34.317   27.381    0.394    0.804 
 5033  215.611    2.530    3.079   34.317   27.381    0.371    0.804 
 5034  215.785    2.530    3.079   34.317   27.381    0.371    0.804 
 5035  215.958    2.530    3.079   34.316   27.381    0.371    0.804 
 5036  216.305    2.530    3.079   34.316   27.381    0.371    0.804 
 5037  216.479    2.530    3.079   34.316   27.380    0.394    0.804 
 5038  216.652    2.530    3.079   34.316   27.380    0.394    0.804 
 5039  216.826    2.530    3.079   34.316   27.380    0.417    0.804 
 5040  217.173    2.530    3.079   34.316   27.380    0.441    0.804 
 5041  217.346    2.530    3.079   34.316   27.380    0.417    0.804 
 5042  217.520    2.530    3.079   34.316   27.380    0.417    0.804 
 5043  217.693    2.530    3.079   34.315   27.380    0.417    0.804 
 5044  217.867    2.530    3.079   34.315   27.380    0.417    0.804 
 5046  218.214    2.530    3.079   34.315   27.380    0.417    0.804 
 5048  218.387    2.530    3.079   34.315   27.380    0.417    0.804 
 5082  218.561    2.530    3.079   34.315   27.380    0.417    0.801 
 5083  218.734    2.530    3.079   34.315   27.380    0.417    0.801 
 5084  218.908    2.530    3.079   34.315   27.380    0.394    0.801 
 5086  219.081    2.530    3.079   34.315   27.379    0.394    0.801 
 5087  219.255    2.531    3.079   34.314   27.378    0.394    0.801 
 5088  219.428    2.531    3.079   34.313   27.378    0.394    0.801 
 5090  219.602    2.531    3.079   34.313   27.378    0.394    0.801 
 5091  219.775    2.531    3.079   34.313   27.378    0.394    0.801 
