NAFC_Y2K_HEADER
39673027  53 14.41 -051 54.20 2006-06-16 17:20 1350 S0281 027 V   stn 27       1
39673027 002804  8.00 A 08 #PTCSMFL------------            D 000 0000 0503 000 4
39673027 8 07 15 02 1004.5 007.0 006.0 04 02 04 07 03    3                     8
-- CHANNEL STATS -->
# span     scan =   2313.000,  7268.000
# span     pres =      0.725,   503.601
# span     temp =      2.942,     5.155
# span     cond =      3.097,     3.243
# span      sal =     33.313,    34.858
# span     sigt =     26.321,    27.700
# span     flor =      0.208,    10.663
# span      par =      0.755,   561.610
-- END --
-- HISTORY --> Thu Jun 22 14:23:28 2006
>SELECT_PROBE S
>READ # (DP) T C L F scan pres temp cond par flor
>STABILIZE_RESTRICT USING= pres 10.0 5 
>RESTRICT USING= pres 0.0 2000.0
>RESTRICT USING= cond 2.0 5.0
>RESTRICT USING= temp -2.0 20.0
>RESTRICT USING= scan 500.0 30000.0
>MEDIANFILTER pres 21 1
>MEDIANFILTER temp 21 1
>MEDIANFILTER cond 21 1
>MEDIANFILTER flor 21 1
>MEDIANFILTER par 21 1
>SELECT_DN USING= pres
>SALINITY PRESSURE=pres CONDUCTIVITY=cond TEMPERATURE=temp RESULT=sal
>RESTRICT USING= sal 29.0 36.0
>MEDIANFILTER sal 21 1
>SIGMAT SALINITY=sal TEMPERATURE=temp RESULT=sigt
>MEDIANFILTER sigt 21 1
>HISTORY_ON
>WRITEFILE .p???? scan pres temp cond sal sigt flor par
-- END --
 scan     pres     temp     cond      sal     sigt     flor      par 
-- DATA --
 2313    0.725    5.151    3.213   33.315   26.323    1.672  561.610 
 2314    0.899    5.150    3.213   33.316   26.323    1.649  551.320 
 2320    1.072    5.151    3.213   33.315   26.322    1.463  537.230 
 2322    1.246    5.151    3.213   33.315   26.322    2.322  521.570 
 2325    1.420    5.151    3.213   33.315   26.322    1.974  484.390 
 2327    1.593    5.151    3.213   33.315   26.322    2.020  479.050 
 2328    1.767    5.151    3.213   33.315   26.322    2.020  470.270 
 2331    1.941    5.152    3.213   33.313   26.321    2.067  439.990 
 2333    2.114    5.152    3.213   33.313   26.321    2.020  416.250 
 2335    2.288    5.152    3.213   33.313   26.321    2.020  396.710 
 2338    2.462    5.153    3.213   33.316   26.323    2.020  372.540 
 2340    2.635    5.155    3.214   33.321   26.327    2.020  357.690 
 2342    2.809    5.155    3.214   33.321   26.327    1.997  349.840 
 2344    2.982    5.155    3.214   33.321   26.327    1.997  340.900 
 2347    3.156    5.155    3.214   33.321   26.327    2.020  333.420 
 2349    3.330    5.155    3.214   33.322   26.327    2.044  323.700 
 2355    3.503    5.155    3.214   33.322   26.327    2.090  296.210 
 2366    3.677    5.154    3.214   33.322   26.328    2.067  286.520 
 2371    3.851    5.153    3.214   33.322   26.328    2.067  274.080 
 2373    4.024    5.153    3.214   33.323   26.328    2.067  255.490 
 2374    4.198    5.153    3.214   33.323   26.328    2.137  246.210 
 2376    4.372    5.153    3.214   33.323   26.328    2.137  231.210 
 2378    4.545    5.153    3.214   33.323   26.328    2.160  225.300 
 2379    4.719    5.153    3.214   33.323   26.328    2.160  222.820 
 2380    4.893    5.153    3.214   33.323   26.328    2.160  220.360 
 2382    5.066    5.152    3.214   33.323   26.328    2.160  213.150 
 2383    5.240    5.152    3.214   33.323   26.328    2.206  208.470 
 2384    5.414    5.152    3.214   33.323   26.328    2.299  203.890 
 2385    5.587    5.152    3.214   33.323   26.328    2.299  199.420 
 2386    5.761    5.151    3.214   33.323   26.328    2.299  195.770 
 2389    5.935    5.151    3.213   33.323   26.328    2.253  183.840 
 2390    6.108    5.151    3.213   33.322   26.328    2.253  179.810 
 2392    6.282    5.151    3.213   33.322   26.328    2.253  172.000 
 2394    6.456    5.151    3.214   33.321   26.328    2.253  166.370 
 2396    6.629    5.151    3.214   33.320   26.327    2.253  162.120 
 2399    6.803    5.152    3.214   33.320   26.327    2.276  156.810 
 2400    6.977    5.153    3.214   33.320   26.326    2.253  155.660 
 2404    7.150    5.154    3.214   33.319   26.326    2.253  151.120 
 2407    7.324    5.154    3.214   33.319   26.326    2.253  147.800 
 2411    7.497    5.155    3.214   33.319   26.326    2.276  146.170 
 2414    7.671    5.155    3.214   33.319   26.326    2.346  144.560 
 2416    7.845    5.155    3.214   33.320   26.326    2.346  141.390 
 2420    8.018    5.155    3.214   33.320   26.326    2.439  130.820 
 2422    8.192    5.155    3.214   33.320   26.326    2.578  124.220 
 2423    8.366    5.155    3.214   33.320   26.326    2.601  121.050 
 2425    8.539    5.154    3.214   33.320   26.326    2.694  117.090 
 2426    8.713    5.154    3.214   33.319   26.326    2.717  114.520 
 2428    8.887    5.154    3.214   33.319   26.326    2.741  111.590 
 2430    9.234    5.153    3.214   33.319   26.326    3.019  108.340 
 2432    9.408    5.153    3.214   33.319   26.326    3.112  103.640 
 2433    9.581    5.153    3.214   33.319   26.326    3.136  101.360 
 2435    9.755    5.153    3.214   33.319   26.326    3.182   96.249 
 2436    9.929    5.152    3.214   33.319   26.326    3.182   93.790 
 2438   10.276    5.148    3.214   33.320   26.327    3.368   88.729 
 2440   10.450    5.144    3.213   33.320   26.327    3.368   84.878 
 2441   10.623    5.144    3.213   33.320   26.327    3.368   83.015 
 2445   10.797    5.144    3.213   33.320   26.327    3.438   78.246 
 2446   10.971    5.144    3.213   33.320   26.327    3.368   77.383 
 2447   11.144    5.144    3.213   33.321   26.328    3.368   76.813 
 2449   11.318    5.144    3.213   33.325   26.331    3.600   75.127 
 2451   11.491    5.146    3.214   33.325   26.331    3.600   73.479 
 2453   11.665    5.147    3.214   33.325   26.331    3.647   71.601 
 2456   11.839    5.147    3.214   33.325   26.331    3.647   68.747 
 2458   12.012    5.147    3.214   33.325   26.331    3.693   66.743 
 2460   12.186    5.147    3.214   33.325   26.331    3.809   64.798 
 2461   12.360    5.147    3.214   33.325   26.331    3.902   63.846 
 2464   12.533    5.135    3.213   33.325   26.331    3.925   61.075 
 2466   12.707    5.134    3.213   33.325   26.332    4.227   59.076 
 2467   12.881    5.134    3.213   33.325   26.332    4.437   58.424 
 2470   13.054    5.132    3.213   33.325   26.332    4.437   55.889 
 2472   13.228    5.132    3.213   33.325   26.332    4.437   54.259 
 2473   13.402    5.130    3.212   33.325   26.332    4.437   53.860 
 2477   13.575    5.129    3.212   33.325   26.332    4.530   51.142 
 2479   13.749    5.128    3.212   33.325   26.332    4.646   49.652 
 2481   13.923    5.127    3.212   33.325   26.332    4.530   48.383 
 2484   14.096    5.123    3.212   33.323   26.333    4.646   45.772 
 2485   14.270    5.122    3.212   33.322   26.333    4.715   44.934 
 2487   14.443    5.119    3.212   33.322   26.333    4.646   43.143 
 2489   14.617    5.114    3.211   33.322   26.333    4.646   41.885 
 2491   14.791    5.113    3.211   33.322   26.333    4.530   40.215 
 2493   14.964    5.110    3.211   33.322   26.333    4.715   38.899 
 2494   15.138    5.110    3.210   33.322   26.333    4.832   38.187 
 2496   15.312    5.105    3.210   33.322   26.333    4.855   36.664 
 2498   15.485    5.084    3.208   33.322   26.336    5.087   35.464 
 2499   15.659    5.079    3.208   33.322   26.337    5.087   34.558 
 2500   15.833    5.070    3.207   33.323   26.338    4.832   33.925 
 2502   16.006    5.068    3.207   33.323   26.338    5.087   32.573 
 2503   16.180    5.062    3.207   33.323   26.339    5.087   31.976 
 2505   16.354    5.055    3.206   33.323   26.339    5.087   30.815 
 2506   16.527    5.055    3.206   33.323   26.339    5.087   30.139 
 2507   16.701    5.054    3.205   33.322   26.339    5.087   29.697 
 2509   17.048    5.029    3.205   33.322   26.342    5.157   28.303 
 2511   17.222    4.979    3.200   33.322   26.348    5.157   27.275 
 2512   17.395    4.971    3.199   33.323   26.349    5.157   26.677 
 2513   17.569    4.968    3.199   33.323   26.349    5.157   26.382 
 2515   17.743    4.962    3.198   33.323   26.350    5.157   25.331 
 2517   17.916    4.952    3.198   33.324   26.352    5.389   24.592 
 2518   18.090    4.945    3.197   33.325   26.354    5.436   24.142 
 2519   18.264    4.944    3.197   33.325   26.354    5.459   23.788 
 2521   18.437    4.940    3.196   33.327   26.356    5.529   23.094 
 2522   18.611    4.939    3.196   33.328   26.357    5.552   22.839 
 2525   18.785    4.933    3.196   33.328   26.357    5.668   21.848 
 2526   18.958    4.932    3.195   33.328   26.357    5.761   21.527 
 2530   19.132    4.922    3.195   33.328   26.359    6.063   20.216 
 2531   19.306    4.922    3.194   33.328   26.359    6.063   19.919 
 2534   19.479    4.920    3.194   33.328   26.359    6.179   19.267 
 2536   19.653    4.914    3.194   33.329   26.360    6.063   18.705 
 2538   19.826    4.898    3.193   33.329   26.362    6.086   18.160 
 2540   20.000    4.855    3.190   33.333   26.370    6.179   17.761 
 2542   20.174    4.823    3.187   33.334   26.374    6.806   17.117 
 2544   20.347    4.800    3.185   33.336   26.379    6.806   16.556 
 2547   20.521    4.700    3.181   33.387   26.430    7.085   15.548 
 2548   20.695    4.619    3.175   33.399   26.448    7.085   15.207 
 2549   20.868    4.463    3.169   33.487   26.535    7.318   14.818 
 2550   21.042    4.304    3.157   33.508   26.568    7.318   14.439 
 2552   21.216    4.115    3.145   33.559   26.628    8.224   13.762 
 2553   21.389    4.008    3.139   33.598   26.670    8.409   13.509 
 2555   21.563    3.651    3.126   33.811   26.875   10.291   12.828 
 2556   21.737    3.515    3.118   33.857   26.925   10.314   12.317 
 2557   21.910    3.419    3.114   33.909   26.975   10.314   12.002 
 2558   22.084    3.283    3.108   33.979   27.044   10.477   11.609 
 2559   22.257    3.208    3.103   33.997   27.066   10.477   11.271 
 2561   22.431    3.160    3.101   34.015   27.084   10.477   10.662 
 2562   22.605    3.141    3.099   34.019   27.089   10.477   10.237 
 2563   22.778    3.133    3.098   34.021   27.091   10.477    9.902 
 2565   22.952    3.116    3.097   34.023   27.095   10.663    9.129 
 2567   23.126    3.112    3.097   34.024   27.096   10.663    8.700 
 2568   23.299    3.112    3.097   34.025   27.096   10.663    8.478 
 2570   23.473    3.112    3.097   34.025   27.096   10.663    8.110 
 2572   23.647    3.112    3.097   34.025   27.096   10.663    7.729 
 2573   23.820    3.112    3.097   34.025   27.097   10.663    7.560 
 2576   23.994    3.112    3.097   34.025   27.097   10.616    7.232 
 2578   24.168    3.120    3.100   34.052   27.118   10.616    6.969 
 2579   24.341    3.128    3.101   34.056   27.120   10.616    6.867 
 2581   24.515    3.138    3.103   34.070   27.130   10.198    6.716 
 2584   24.688    3.141    3.104   34.079   27.137    9.757    6.425 
 2586   24.862    3.142    3.105   34.089   27.145    9.432    6.168 
 2587   25.036    3.142    3.105   34.090   27.145    9.246    6.033 
 2589   25.209    3.142    3.107   34.114   27.165    9.176    5.836 
 2591   25.383    3.142    3.109   34.138   27.184    9.130    5.582 
 2593   25.557    3.142    3.109   34.138   27.184    9.037    5.320 
 2594   25.730    3.142    3.109   34.138   27.184    8.920    5.204 
 2596   25.904    3.142    3.109   34.138   27.184    8.665    4.996 
 2597   26.078    3.142    3.109   34.138   27.184    8.618    4.887 
 2599   26.425    3.126    3.109   34.154   27.198    8.595    4.589 
 2602   26.598    3.114    3.109   34.167   27.210    8.316    4.341 
 2603   26.772    3.114    3.109   34.167   27.210    8.316    4.246 
 2604   26.946    3.103    3.109   34.178   27.220    8.084    4.137 
 2606   27.119    3.081    3.108   34.189   27.230    7.875    3.929 
 2607   27.293    3.081    3.108   34.189   27.230    7.875    3.885 
 2609   27.467    3.081    3.108   34.189   27.230    7.875    3.730 
 2611   27.640    3.081    3.108   34.189   27.230    7.759    3.608 
 2612   27.814    3.081    3.108   34.189   27.230    7.689    3.516 
 2613   27.988    3.081    3.108   34.189   27.231    7.689    3.452 
 2615   28.161    3.081    3.108   34.189   27.231    7.341    3.339 
 2616   28.335    3.081    3.109   34.201   27.240    7.341    3.290 
 2618   28.508    3.101    3.113   34.228   27.260    7.062    3.194 
 2620   28.682    3.105    3.114   34.236   27.266    6.597    3.124 
 2621   28.856    3.105    3.114   34.236   27.266    6.365    3.078 
 2623   29.029    3.105    3.116   34.260   27.285    6.342    3.010 
 2624   29.203    3.105    3.117   34.272   27.295    6.365    2.955 
 2626   29.377    3.105    3.118   34.284   27.304    6.342    2.859 
 2627   29.550    3.105    3.118   34.284   27.304    6.202    2.796 
 2629   29.724    3.105    3.119   34.296   27.314    6.063    2.755 
 2631   29.898    3.099    3.120   34.315   27.329    6.063    2.734 
 2632   30.071    3.083    3.120   34.332   27.344    5.993    2.714 
 2634   30.245    3.058    3.120   34.358   27.368    5.575    2.655 
 2636   30.418    3.055    3.120   34.361   27.370    5.296    2.558 
 2637   30.592    3.055    3.120   34.361   27.370    4.924    2.511 
 2639   30.766    3.055    3.120   34.361   27.370    4.715    2.466 
 2641   30.939    3.052    3.120   34.364   27.373    4.599    2.402 
 2642   31.113    3.051    3.120   34.365   27.374    4.506    2.394 
 2644   31.287    3.051    3.120   34.365   27.374    4.344    2.341 
 2645   31.460    3.043    3.120   34.371   27.379    4.344    2.307 
 2648   31.634    3.034    3.119   34.374   27.382    4.227    2.273 
 2650   31.808    3.005    3.118   34.382   27.391    4.018    2.215 
 2651   31.981    2.995    3.117   34.388   27.397    4.018    2.198 
 2652   32.155    2.989    3.116   34.388   27.398    3.972    2.166 
 2654   32.328    2.983    3.116   34.390   27.399    3.972    2.126 
 2656   32.502    2.979    3.116   34.393   27.402    3.600    2.103 
 2658   32.676    2.961    3.115   34.399   27.409    3.484    2.072 
 2659   32.849    2.961    3.115   34.400   27.409    3.322    2.049 
 2661   33.023    2.960    3.115   34.400   27.410    3.019    2.027 
 2662   33.197    2.960    3.115   34.400   27.410    2.996    2.012 
 2663   33.370    2.960    3.115   34.400   27.410    2.927    1.990 
 2665   33.544    2.958    3.115   34.401   27.411    2.857    1.939 
 2667   33.718    2.958    3.115   34.402   27.411    2.857    1.924 
 2668   33.891    2.958    3.115   34.402   27.411    2.764    1.910 
 2669   34.065    2.958    3.115   34.402   27.411    2.764    1.896 
 2671   34.238    2.958    3.115   34.402   27.411    2.717    1.848 
 2672   34.412    2.958    3.115   34.402   27.411    2.717    1.848 
 2673   34.586    2.958    3.115   34.402   27.411    2.717    1.827 
 2675   34.759    2.958    3.115   34.402   27.411    2.578    1.814 
 2677   34.933    2.958    3.115   34.402   27.412    2.555    1.781 
 2678   35.107    2.956    3.115   34.402   27.412    2.578    1.781 
 2679   35.280    2.955    3.115   34.402   27.412    2.648    1.768 
 2681   35.627    2.954    3.115   34.404   27.413    2.648    1.697 
 2684   35.801    2.952    3.114   34.404   27.414    2.648    1.697 
 2685   35.975    2.949    3.114   34.405   27.415    2.578    1.691 
 2687   36.148    2.942    3.114   34.405   27.416    2.625    1.685 
 2688   36.322    2.942    3.114   34.405   27.416    2.625    1.660 
 2690   36.496    2.942    3.114   34.405   27.416    2.648    1.654 
 2693   36.669    2.942    3.114   34.405   27.416    2.532    1.635 
 2694   36.843    2.942    3.114   34.406   27.416    2.439    1.629 
 2696   37.017    2.942    3.114   34.406   27.416    2.392    1.605 
 2699   37.190    2.950    3.116   34.421   27.427    2.230    1.588 
 2701   37.364    2.960    3.118   34.435   27.438    2.183    1.570 
 2702   37.537    2.967    3.119   34.439   27.441    2.183    1.564 
 2704   37.711    2.973    3.120   34.443   27.443    2.113    1.547 
 2705   37.885    2.973    3.120   34.445   27.444    2.067    1.541 
 2708   38.058    2.973    3.120   34.445   27.444    1.695    1.513 
 2709   38.232    2.975    3.120   34.445   27.444    1.695    1.513 
 2711   38.406    2.980    3.121   34.446   27.445    1.672    1.497 
 2712   38.579    2.983    3.121   34.447   27.446    1.649    1.486 
 2713   38.753    2.985    3.122   34.449   27.447    1.625    1.469 
 2715   38.926    2.993    3.122   34.452   27.447    1.625    1.458 
 2716   39.100    2.996    3.123   34.456   27.447    1.625    1.448 
 2718   39.274    3.007    3.124   34.456   27.447    1.649    1.442 
 2719   39.447    3.023    3.125   34.456   27.448    1.625    1.437 
 2721   39.621    3.040    3.127   34.457   27.448    1.486    1.426 
 2722   39.795    3.053    3.128   34.458   27.449    1.486    1.426 
 2724   39.968    3.062    3.129   34.458   27.449    1.463    1.405 
 2725   40.142    3.065    3.130   34.459   27.450    1.463    1.395 
 2727   40.315    3.067    3.130   34.462   27.450    1.463    1.385 
 2728   40.489    3.068    3.130   34.464   27.450    1.463    1.380 
 2729   40.663    3.084    3.131   34.465   27.450    1.463    1.380 
 2730   40.836    3.115    3.134   34.467   27.450    1.463    1.375 
 2732   41.010    3.135    3.137   34.470   27.450    1.463    1.364 
 2733   41.184    3.153    3.138   34.475   27.451    1.463    1.344 
 2734   41.357    3.171    3.140   34.477   27.452    1.486    1.339 
 2736   41.531    3.202    3.143   34.478   27.452    1.486    1.330 
 2738   41.704    3.202    3.145   34.503   27.469    1.556    1.325 
 2740   42.052    3.202    3.146   34.514   27.478    1.486    1.310 
 2743   42.225    3.202    3.146   34.514   27.479    1.486    1.300 
 2745   42.399    3.202    3.146   34.514   27.479    1.556    1.291 
 2747   42.573    3.201    3.146   34.515   27.479    1.556    1.291 
 2749   42.746    3.191    3.145   34.515   27.481    1.486    1.286 
 2751   42.920    3.189    3.145   34.516   27.481    1.324    1.267 
 2752   43.093    3.189    3.145   34.516   27.481    1.254    1.267 
 2755   43.267    3.182    3.145   34.519   27.485    1.184    1.258 
 2756   43.441    3.176    3.145   34.522   27.488    1.161    1.253 
 2757   43.614    3.174    3.144   34.523   27.488    1.138    1.253 
 2759   43.788    3.171    3.144   34.529   27.494    1.114    1.244 
 2761   43.962    3.159    3.144   34.532   27.497    1.114    1.226 
 2762   44.135    3.150    3.143   34.535   27.500    1.068    1.226 
 2764   44.309    3.128    3.142   34.535   27.502    1.068    1.217 
 2765   44.482    3.113    3.140   34.536   27.504    1.068    1.217 
 2766   44.656    3.101    3.139   34.539   27.508    1.021    1.217 
 2767   44.830    3.096    3.139   34.541   27.510    1.021    1.217 
 2769   45.003    3.096    3.139   34.541   27.510    1.091    1.212 
 2770   45.177    3.096    3.139   34.541   27.510    1.021    1.208 
 2771   45.351    3.095    3.139   34.542   27.511    1.021    1.194 
 2772   45.524    3.095    3.139   34.542   27.511    1.091    1.194 
 2774   45.698    3.094    3.139   34.542   27.511    1.138    1.186 
 2775   45.871    3.091    3.139   34.543   27.512    1.138    1.181 
 2777   46.045    3.088    3.139   34.544   27.513    1.138    1.177 
 2778   46.219    3.086    3.138   34.545   27.514    1.138    1.173 
 2779   46.392    3.083    3.138   34.545   27.514    1.138    1.168 
 2781   46.566    3.080    3.138   34.545   27.515    1.091    1.164 
 2782   46.740    3.080    3.138   34.546   27.515    1.091    1.160 
 2784   46.913    3.078    3.138   34.546   27.516    1.068    1.160 
 2786   47.087    3.072    3.138   34.547   27.517    1.045    1.155 
 2787   47.260    3.069    3.138   34.547   27.517    1.045    1.155 
 2789   47.434    3.068    3.137   34.549   27.519    1.021    1.151 
 2791   47.608    3.067    3.137   34.549   27.519    1.045    1.151 
 2794   47.781    3.066    3.137   34.549   27.519    0.998    1.138 
 2796   47.955    3.064    3.137   34.549   27.519    0.998    1.130 
 2799   48.129    3.063    3.137   34.549   27.520    0.998    1.130 
 2800   48.302    3.063    3.137   34.550   27.520    0.975    1.126 
 2802   48.476    3.063    3.137   34.550   27.520    0.998    1.117 
 2804   48.649    3.063    3.137   34.550   27.520    0.998    1.109 
 2806   48.823    3.063    3.137   34.550   27.520    0.998    1.105 
 2808   48.997    3.063    3.137   34.550   27.520    1.021    1.093 
 2809   49.170    3.064    3.137   34.550   27.520    0.998    1.093 
 2810   49.344    3.064    3.137   34.550   27.520    0.998    1.093 
 2811   49.518    3.064    3.137   34.550   27.520    0.998    1.089 
 2813   49.691    3.066    3.138   34.553   27.522    0.998    1.089 
 2815   49.865    3.105    3.141   34.558   27.523    0.998    1.085 
 2816   50.038    3.109    3.142   34.561   27.525    0.998    1.085 
 2817   50.212    3.112    3.143   34.566   27.529    0.998    1.085 
 2818   50.386    3.115    3.143   34.570   27.531    0.998    1.085 
 2820   50.559    3.119    3.144   34.573   27.533    0.998    1.081 
 2821   50.733    3.120    3.144   34.574   27.534    0.998    1.081 
 2823   50.906    3.120    3.145   34.585   27.543    0.975    1.077 
 2824   51.080    3.120    3.145   34.585   27.543    0.975    1.000 
 2827   51.254    3.120    3.145   34.585   27.543    0.975    1.000 
 2828   51.427    3.120    3.145   34.585   27.543    0.975    0.989 
 2830   51.601    3.120    3.145   34.585   27.543    0.975    0.985 
 2832   51.775    3.118    3.145   34.587   27.544    0.975    0.975 
 2834   51.948    3.116    3.145   34.588   27.546    0.975    0.975 
 2837   52.122    3.116    3.145   34.589   27.546    0.998    0.985 
 2840   52.295    3.116    3.145   34.589   27.546    0.998    0.989 
 2843   52.469    3.116    3.145   34.589   27.546    0.975    0.993 
 2844   52.643    3.116    3.145   34.589   27.546    0.975    0.993 
 2846   52.816    3.116    3.145   34.589   27.546    0.975    0.993 
 2848   52.990    3.115    3.145   34.589   27.546    0.975    0.989 
 2850   53.164    3.115    3.145   34.589   27.546    0.998    0.989 
 2852   53.337    3.115    3.145   34.589   27.547    0.998    0.993 
 2853   53.511    3.115    3.145   34.589   27.547    0.998    0.993 
 2855   53.684    3.115    3.145   34.589   27.547    0.975    0.989 
 2856   53.858    3.115    3.145   34.589   27.547    0.952    0.993 
 2859   54.032    3.115    3.145   34.589   27.547    0.975    0.993 
 2861   54.205    3.114    3.145   34.589   27.547    0.975    0.993 
 2862   54.379    3.114    3.145   34.589   27.547    0.952    0.993 
 2863   54.552    3.114    3.145   34.589   27.547    0.952    0.993 
 2865   54.726    3.114    3.145   34.589   27.547    0.975    0.996 
 2866   54.900    3.114    3.145   34.589   27.547    0.952    0.996 
 2869   55.073    3.114    3.145   34.589   27.547    0.952    0.996 
 2870   55.247    3.114    3.145   34.589   27.547    0.928    0.996 
 2872   55.421    3.114    3.145   34.589   27.547    0.928    0.993 
 2875   55.594    3.114    3.145   34.590   27.547    0.928    0.993 
 2876   55.768    3.114    3.145   34.590   27.547    0.928    0.993 
 2878   55.941    3.114    3.145   34.590   27.547    0.928    0.985 
 2881   56.115    3.119    3.147   34.606   27.559    0.928    0.978 
 2883   56.289    3.119    3.147   34.607   27.561    0.928    0.978 
 2884   56.462    3.119    3.147   34.607   27.561    0.905    0.978 
 2886   56.636    3.119    3.147   34.607   27.561    0.882    0.978 
 2889   56.809    3.119    3.147   34.608   27.561    0.905    0.978 
 2891   56.983    3.115    3.147   34.608   27.561    0.905    0.978 
 2893   57.157    3.109    3.147   34.608   27.562    0.859    0.978 
 2894   57.330    3.109    3.146   34.608   27.562    0.859    0.978 
 2897   57.504    3.107    3.146   34.608   27.562    0.812    0.978 
 2899   57.678    3.107    3.146   34.609   27.563    0.812    0.978 
 2900   57.851    3.107    3.146   34.609   27.563    0.789    0.982 
 2903   58.025    3.105    3.146   34.609   27.564    0.789    0.993 
 2904   58.198    3.105    3.146   34.609   27.564    0.789    0.993 
 2905   58.372    3.105    3.146   34.610   27.564    0.789    0.993 
 2907   58.546    3.105    3.146   34.612   27.565    0.789    1.081 
 2909   58.893    3.104    3.146   34.613   27.567    0.743    1.085 
 2912   59.066    3.101    3.146   34.613   27.567    0.743    1.085 
 2913   59.240    3.101    3.146   34.613   27.567    0.743    1.085 
 2914   59.414    3.100    3.146   34.614   27.568    0.743    1.085 
 2915   59.587    3.100    3.146   34.614   27.568    0.719    1.085 
 2917   59.761    3.098    3.146   34.615   27.569    0.719    1.085 
 2918   59.935    3.096    3.146   34.615   27.569    0.719    1.085 
 2920   60.108    3.090    3.146   34.615   27.570    0.719    1.023 
 2922   60.282    3.087    3.145   34.615   27.570    0.719    1.011 
 2924   60.455    3.087    3.145   34.615   27.570    0.696    0.985 
 2926   60.629    3.087    3.145   34.616   27.571    0.696    0.978 
 2928   60.803    3.087    3.145   34.618   27.572    0.673    0.971 
 2929   60.976    3.087    3.145   34.623   27.576    0.673    0.967 
 2932   61.150    3.087    3.146   34.624   27.577    0.673    0.967 
 2933   61.323    3.087    3.146   34.627   27.579    0.673    0.967 
 2935   61.497    3.087    3.146   34.627   27.579    0.673    0.964 
 2938   61.671    3.087    3.146   34.627   27.579    0.673    0.957 
 2939   61.844    3.087    3.146   34.627   27.579    0.673    0.957 
 2940   62.018    3.087    3.146   34.627   27.579    0.673    0.957 
 2943   62.191    3.090    3.146   34.627   27.579    0.673    0.953 
 2944   62.365    3.090    3.147   34.630   27.582    0.673    0.950 
 2946   62.539    3.090    3.147   34.633   27.584    0.673    0.950 
 2947   62.712    3.090    3.147   34.635   27.585    0.673    0.950 
 2949   62.886    3.090    3.147   34.635   27.585    0.696    0.943 
 2950   63.060    3.090    3.147   34.635   27.585    0.696    0.943 
 2951   63.233    3.090    3.147   34.635   27.585    0.696    0.936 
 2953   63.407    3.094    3.147   34.635   27.585    0.673    0.932 
 2955   63.580    3.101    3.148   34.635   27.586    0.673    0.919 
 2956   63.754    3.103    3.148   34.635   27.586    0.673    0.912 
 2958   63.928    3.109    3.149   34.637   27.586    0.673    0.853 
 2960   64.101    3.115    3.150   34.638   27.586    0.673    0.853 
 2961   64.275    3.119    3.150   34.640   27.587    0.650    0.853 
 2962   64.448    3.121    3.150   34.642   27.588    0.650    0.853 
 2963   64.622    3.122    3.151   34.643   27.589    0.627    0.853 
 2966   64.796    3.124    3.151   34.643   27.589    0.650    0.853 
 2967   64.969    3.125    3.151   34.644   27.589    0.650    0.853 
 2969   65.143    3.127    3.151   34.644   27.589    0.650    1.000 
 2971   65.316    3.128    3.151   34.645   27.589    0.627    1.000 
 2973   65.664    3.132    3.152   34.646   27.590    0.627    1.000 
 2976   65.837    3.137    3.152   34.646   27.590    0.650    1.000 
 2977   66.011    3.138    3.152   34.646   27.590    0.650    1.000 
 2979   66.184    3.143    3.153   34.646   27.590    0.650    0.975 
 2981   66.358    3.145    3.153   34.647   27.590    0.696    0.960 
 2982   66.532    3.145    3.153   34.647   27.590    0.719    0.957 
 2983   66.705    3.146    3.153   34.647   27.590    0.719    0.946 
 2985   66.879    3.146    3.153   34.647   27.590    0.743    0.939 
 2987   67.052    3.146    3.153   34.649   27.591    0.743    0.936 
 2988   67.226    3.147    3.154   34.649   27.592    0.719    0.929 
 2990   67.400    3.147    3.154   34.649   27.592    0.766    0.922 
 2991   67.573    3.147    3.154   34.655   27.595    0.766    0.922 
 2995   67.747    3.147    3.154   34.656   27.596    0.789    0.908 
 2996   68.094    3.147    3.154   34.656   27.596    0.789    0.902 
 2998   68.268    3.148    3.154   34.657   27.596    0.766    0.902 
 3001   68.441    3.154    3.154   34.657   27.596    0.766    0.902 
 3003   68.615    3.168    3.155   34.657   27.596    0.743    0.902 
 3004   68.789    3.178    3.157   34.658   27.597    0.766    0.902 
 3006   68.962    3.185    3.158   34.659   27.597    0.743    0.902 
 3008   69.136    3.187    3.158   34.659   27.597    0.743    0.908 
 3010   69.309    3.188    3.158   34.660   27.597    0.743    0.908 
 3011   69.483    3.189    3.158   34.661   27.597    0.719    0.908 
 3012   69.657    3.190    3.158   34.662   27.597    0.719    0.908 
 3014   69.830    3.194    3.159   34.662   27.598    0.627    0.908 
 3015   70.004    3.196    3.159   34.662   27.598    0.627    0.908 
 3017   70.177    3.197    3.159   34.663   27.598    0.627    0.908 
 3019   70.351    3.201    3.160   34.663   27.598    0.627    0.912 
 3021   70.525    3.202    3.160   34.663   27.598    0.627    0.915 
 3022   70.698    3.204    3.160   34.664   27.598    0.627    0.912 
 3025   70.872    3.205    3.160   34.664   27.598    0.627    0.908 
 3026   71.045    3.206    3.160   34.665   27.599    0.627    0.908 
 3028   71.219    3.207    3.160   34.666   27.599    0.650    0.905 
 3031   71.393    3.207    3.160   34.666   27.599    0.627    0.905 
 3032   71.566    3.208    3.160   34.666   27.599    0.627    0.905 
 3033   71.740    3.208    3.160   34.667   27.600    0.627    0.905 
 3035   71.913    3.208    3.161   34.669   27.600    0.650    0.902 
 3037   72.087    3.212    3.161   34.669   27.600    0.627    0.902 
 3039   72.261    3.215    3.161   34.669   27.600    0.627    0.895 
 3040   72.434    3.215    3.161   34.669   27.600    0.557    0.895 
 3042   72.608    3.218    3.162   34.669   27.601    0.557    0.895 
 3043   72.781    3.219    3.162   34.669   27.601    0.557    0.895 
 3045   72.955    3.221    3.162   34.669   27.601    0.557    0.895 
 3047   73.129    3.221    3.162   34.669   27.601    0.557    0.892 
 3049   73.476    3.222    3.162   34.669   27.601    0.557    0.892 
 3051   73.649    3.222    3.162   34.670   27.601    0.627    0.892 
 3053   73.823    3.223    3.162   34.670   27.601    0.673    0.889 
 3055   73.997    3.223    3.162   34.670   27.601    0.719    0.889 
 3057   74.170    3.223    3.162   34.671   27.602    0.743    0.885 
 3058   74.344    3.224    3.162   34.671   27.602    0.743    0.885 
 3060   74.517    3.224    3.162   34.673   27.602    0.743    0.889 
 3062   74.691    3.234    3.163   34.673   27.602    0.743    0.889 
 3063   74.865    3.236    3.164   34.673   27.603    0.743    0.889 
 3066   75.038    3.239    3.164   34.675   27.603    0.696    0.889 
 3067   75.212    3.241    3.164   34.676   27.604    0.673    0.889 
 3069   75.385    3.249    3.165   34.676   27.604    0.673    0.889 
 3072   75.559    3.260    3.166   34.677   27.604    0.650    0.892 
 3073   75.733    3.261    3.166   34.679   27.604    0.650    0.892 
 3075   75.906    3.262    3.167   34.679   27.605    0.627    0.892 
 3076   76.080    3.262    3.167   34.680   27.606    0.627    0.892 
 3078   76.253    3.263    3.167   34.681   27.606    0.603    0.892 
 3079   76.427    3.263    3.167   34.682   27.606    0.603    0.892 
 3082   76.601    3.263    3.167   34.685   27.609    0.650    0.889 
 3084   76.774    3.263    3.167   34.685   27.609    0.650    0.889 
 3085   76.948    3.266    3.167   34.685   27.609    0.696    0.885 
 3088   77.121    3.267    3.167   34.685   27.609    0.696    0.882 
 3089   77.295    3.268    3.167   34.686   27.610    0.696    0.882 
 3090   77.469    3.270    3.168   34.686   27.610    0.673    0.882 
 3093   77.642    3.270    3.168   34.688   27.611    0.650    0.875 
 3095   77.816    3.277    3.168   34.689   27.611    0.627    0.875 
 3096   77.989    3.279    3.169   34.689   27.611    0.650    0.875 
 3098   78.163    3.280    3.169   34.689   27.611    0.627    0.875 
 3099   78.337    3.281    3.169   34.690   27.611    0.650    0.875 
 3101   78.510    3.287    3.170   34.691   27.612    0.627    0.875 
 3103   78.684    3.289    3.170   34.691   27.612    0.627    0.875 
 3104   78.857    3.290    3.170   34.691   27.612    0.627    0.875 
 3106   79.031    3.293    3.170   34.692   27.612    0.580    0.879 
 3107   79.205    3.294    3.171   34.692   27.612    0.580    0.879 
 3108   79.378    3.295    3.171   34.693   27.612    0.580    0.879 
 3110   79.552    3.295    3.171   34.693   27.613    0.580    0.879 
 3112   79.725    3.296    3.171   34.694   27.613    0.580    0.879 
 3113   79.899    3.299    3.171   34.694   27.613    0.580    0.879 
 3115   80.073    3.300    3.171   34.695   27.613    0.534    0.879 
 3116   80.246    3.301    3.171   34.696   27.615    0.534    0.879 
 3118   80.420    3.305    3.172   34.697   27.615    0.534    0.879 
 3119   80.593    3.306    3.172   34.698   27.615    0.534    0.879 
 3122   80.767    3.309    3.172   34.698   27.615    0.510    0.879 
 3124   80.941    3.309    3.172   34.699   27.615    0.510    0.879 
 3125   81.114    3.310    3.172   34.699   27.615    0.487    0.879 
 3128   81.288    3.311    3.173   34.699   27.615    0.487    0.875 
 3130   81.461    3.311    3.173   34.699   27.615    0.487    0.875 
 3132   81.635    3.311    3.173   34.700   27.616    0.487    0.875 
 3134   81.809    3.311    3.173   34.701   27.617    0.510    0.875 
 3137   81.982    3.312    3.173   34.701   27.617    0.510    0.875 
 3140   82.156    3.312    3.173   34.701   27.617    0.510    0.872 
 3142   82.329    3.313    3.173   34.702   27.618    0.510    0.869 
 3144   82.503    3.313    3.173   34.702   27.618    0.534    0.869 
 3145   82.677    3.313    3.173   34.702   27.618    0.510    0.869 
 3147   82.850    3.314    3.173   34.702   27.618    0.534    0.869 
 3149   83.024    3.315    3.173   34.702   27.618    0.534    0.869 
 3151   83.197    3.317    3.173   34.702   27.618    0.580    0.869 
 3152   83.371    3.317    3.174   34.702   27.618    0.580    0.869 
 3153   83.545    3.318    3.174   34.702   27.618    0.580    0.869 
 3154   83.718    3.318    3.174   34.702   27.618    0.580    0.869 
 3156   83.892    3.319    3.174   34.706   27.620    0.580    0.869 
 3157   84.065    3.319    3.174   34.706   27.620    0.557    0.869 
 3159   84.239    3.322    3.174   34.706   27.620    0.580    0.869 
 3160   84.413    3.323    3.174   34.706   27.620    0.580    0.869 
 3161   84.586    3.325    3.174   34.706   27.620    0.580    0.869 
 3162   84.760    3.325    3.175   34.706   27.620    0.580    0.866 
 3163   84.933    3.327    3.175   34.706   27.620    0.580    0.866 
 3165   85.107    3.328    3.175   34.706   27.620    0.580    0.863 
 3166   85.280    3.329    3.175   34.706   27.620    0.603    0.863 
 3167   85.454    3.329    3.175   34.706   27.620    0.603    0.863 
 3169   85.628    3.329    3.175   34.706   27.620    0.603    0.863 
 3171   85.801    3.331    3.175   34.706   27.620    0.673    0.863 
 3173   85.975    3.333    3.175   34.706   27.620    0.696    0.863 
 3174   86.148    3.333    3.175   34.707   27.620    0.673    0.863 
 3177   86.322    3.334    3.176   34.707   27.620    0.673    0.869 
 3179   86.496    3.334    3.176   34.708   27.620    0.627    0.872 
 3182   86.669    3.336    3.176   34.708   27.620    0.627    0.872 
 3185   86.843    3.339    3.176   34.708   27.620    0.557    0.872 
 3187   87.016    3.341    3.176   34.709   27.621    0.534    0.869 
 3189   87.190    3.341    3.176   34.710   27.622    0.534    0.869 
 3191   87.364    3.342    3.177   34.710   27.622    0.510    0.866 
 3192   87.537    3.342    3.177   34.711   27.622    0.510    0.863 
 3194   87.711    3.344    3.177   34.712   27.623    0.510    0.863 
 3196   87.884    3.348    3.177   34.713   27.623    0.510    0.859 
 3197   88.232    3.351    3.177   34.713   27.623    0.510    0.856 
 3200   88.405    3.358    3.178   34.713   27.623    0.510    0.853 
 3201   88.579    3.361    3.179   34.714   27.623    0.510    0.850 
 3202   88.752    3.364    3.179   34.714   27.623    0.510    0.850 
 3203   88.926    3.365    3.179   34.715   27.624    0.510    0.850 
 3204   89.100    3.365    3.179   34.715   27.624    0.510    0.850 
 3206   89.273    3.367    3.179   34.716   27.624    0.510    0.850 
 3207   89.447    3.368    3.179   34.718   27.625    0.510    0.850 
 3209   89.620    3.368    3.180   34.718   27.625    0.510    0.850 
 3211   89.794    3.371    3.180   34.718   27.625    0.510    0.850 
 3212   89.967    3.371    3.180   34.718   27.625    0.510    0.850 
 3215   90.141    3.372    3.180   34.718   27.625    0.510    0.850 
 3218   90.315    3.372    3.180   34.719   27.626    0.534    0.850 
 3220   90.488    3.372    3.180   34.719   27.626    0.510    0.850 
 3226   90.662    3.372    3.180   34.719   27.626    0.510    0.853 
 3229   90.835    3.372    3.180   34.722   27.628    0.487    0.850 
 3231   91.009    3.375    3.181   34.723   27.628    0.487    0.850 
 3232   91.183    3.376    3.181   34.724   27.628    0.487    0.853 
 3234   91.356    3.377    3.181   34.724   27.628    0.487    0.853 
 3235   91.530    3.379    3.181   34.724   27.628    0.487    0.853 
 3237   91.703    3.385    3.182   34.724   27.628    0.487    0.853 
 3238   91.877    3.386    3.182   34.724   27.628    0.487    0.853 
 3240   92.051    3.387    3.182   34.724   27.628    0.464    0.856 
 3241   92.224    3.387    3.182   34.724   27.628    0.464    0.936 
 3242   92.398    3.387    3.182   34.724   27.628    0.464    0.939 
 3243   92.571    3.388    3.182   34.724   27.628    0.464    0.953 
 3244   92.745    3.388    3.182   34.724   27.628    0.464    0.960 
 3245   92.918    3.388    3.182   34.724   27.628    0.441    0.960 
 3246   93.092    3.388    3.182   34.724   27.628    0.417    0.960 
 3247   93.266    3.389    3.182   34.724   27.628    0.417    0.960 
 3248   93.439    3.389    3.182   34.725   27.628    0.417    0.960 
 3250   93.613    3.389    3.182   34.725   27.628    0.417    0.960 
 3251   93.786    3.390    3.182   34.725   27.628    0.417    0.960 
 3252   93.960    3.390    3.182   34.725   27.628    0.417    0.953 
 3254   94.134    3.390    3.182   34.725   27.628    0.417    0.936 
 3255   94.307    3.391    3.183   34.724   27.629    0.417    0.932 
 3256   94.481    3.391    3.183   34.725   27.629    0.417    0.915 
 3258   94.654    3.393    3.183   34.725   27.629    0.417    0.905 
 3260   94.828    3.393    3.183   34.725   27.629    0.417    0.898 
 3262   95.001    3.394    3.183   34.726   27.629    0.417    0.892 
 3265   95.175    3.395    3.183   34.727   27.630    0.417    0.885 
 3267   95.349    3.396    3.183   34.728   27.631    0.441    0.882 
 3270   95.522    3.397    3.183   34.729   27.632    0.441    0.879 
 3272   95.696    3.397    3.183   34.729   27.632    0.441    0.869 
 3274   95.869    3.397    3.183   34.732   27.634    0.441    0.869 
 3278   96.043    3.398    3.183   34.732   27.634    0.441    0.869 
 3280   96.217    3.398    3.184   34.732   27.634    0.441    0.866 
 3282   96.390    3.398    3.184   34.732   27.634    0.441    0.866 
 3284   96.564    3.398    3.184   34.732   27.634    0.441    0.859 
 3286   96.737    3.399    3.184   34.732   27.634    0.441    0.859 
 3287   96.911    3.399    3.184   34.732   27.634    0.441    0.859 
 3289   97.085    3.399    3.184   34.732   27.634    0.464    0.859 
 3291   97.258    3.400    3.184   34.732   27.634    0.464    0.856 
 3292   97.432    3.400    3.184   34.732   27.634    0.464    0.856 
 3294   97.605    3.400    3.184   34.732   27.634    0.487    0.856 
 3295   97.779    3.400    3.184   34.732   27.634    0.487    0.856 
 3297   97.952    3.400    3.184   34.732   27.634    0.510    0.856 
 3298   98.126    3.400    3.184   34.732   27.634    0.510    0.856 
 3299   98.300    3.400    3.184   34.732   27.634    0.510    0.856 
 3301   98.473    3.401    3.184   34.732   27.633    0.510    0.856 
 3302   98.647    3.401    3.184   34.732   27.633    0.510    0.856 
 3304   98.820    3.402    3.184   34.731   27.633    0.534    0.856 
 3305   98.994    3.402    3.184   34.731   27.633    0.534    0.856 
 3307   99.168    3.402    3.184   34.731   27.633    0.557    0.856 
 3309   99.341    3.403    3.184   34.731   27.633    0.557    0.856 
 3310   99.515    3.403    3.184   34.731   27.633    0.557    0.856 
 3311   99.688    3.403    3.184   34.731   27.633    0.534    0.856 
 3312   99.862    3.404    3.184   34.731   27.633    0.534    0.856 
 3314  100.035    3.406    3.184   34.731   27.633    0.557    0.856 
 3315  100.209    3.408    3.185   34.731   27.633    0.534    0.856 
 3316  100.383    3.409    3.185   34.733   27.633    0.510    0.856 
 3318  100.556    3.413    3.185   34.733   27.633    0.510    0.856 
 3320  100.730    3.417    3.186   34.734   27.634    0.487    0.856 
 3321  100.903    3.417    3.186   34.735   27.634    0.487    0.856 
 3323  101.077    3.417    3.186   34.736   27.634    0.487    0.856 
 3325  101.250    3.417    3.186   34.736   27.634    0.487    0.853 
 3326  101.424    3.417    3.186   34.736   27.635    0.464    0.853 
 3327  101.598    3.417    3.186   34.736   27.635    0.464    0.853 
 3329  101.771    3.419    3.186   34.736   27.635    0.464    0.853 
 3332  101.945    3.425    3.187   34.736   27.635    0.487    0.853 
 3333  102.118    3.428    3.187   34.737   27.635    0.487    0.856 
 3336  102.292    3.431    3.187   34.737   27.635    0.487    0.856 
 3339  102.466    3.431    3.188   34.739   27.636    0.510    0.856 
 3340  102.639    3.431    3.188   34.740   27.636    0.510    0.856 
 3343  102.813    3.432    3.188   34.740   27.637    0.534    0.853 
 3346  102.986    3.434    3.188   34.740   27.637    0.534    0.853 
 3348  103.160    3.435    3.188   34.741   27.637    0.534    0.850 
 3349  103.333    3.435    3.188   34.741   27.637    0.534    0.850 
 3351  103.507    3.439    3.188   34.742   27.638    0.534    0.847 
 3353  103.681    3.444    3.189   34.742   27.638    0.534    0.841 
 3354  103.854    3.445    3.189   34.744   27.638    0.534    0.834 
 3356  104.028    3.447    3.189   34.744   27.638    0.534    0.834 
 3357  104.201    3.448    3.190   34.745   27.639    0.487    0.831 
 3358  104.375    3.448    3.190   34.745   27.639    0.441    0.828 
 3359  104.549    3.449    3.190   34.745   27.639    0.441    0.819 
 3361  104.722    3.451    3.190   34.746   27.640    0.441    0.816 
 3362  104.896    3.451    3.190   34.746   27.640    0.441    0.810 
 3363  105.069    3.452    3.190   34.746   27.640    0.441    0.807 
 3364  105.243    3.453    3.190   34.747   27.640    0.441    0.807 
 3366  105.416    3.455    3.190   34.748   27.641    0.441    0.789 
 3367  105.590    3.455    3.191   34.748   27.641    0.441    0.789 
 3368  105.764    3.456    3.191   34.749   27.641    0.441    0.789 
 3370  106.111    3.457    3.191   34.750   27.642    0.464    0.789 
 3372  106.284    3.458    3.191   34.750   27.642    0.464    0.789 
 3373  106.458    3.460    3.191   34.750   27.642    0.441    0.789 
 3375  106.631    3.461    3.191   34.750   27.642    0.441    0.789 
 3376  106.805    3.462    3.191   34.751   27.643    0.464    0.789 
 3378  106.979    3.467    3.192   34.752   27.643    0.464    0.807 
 3380  107.152    3.469    3.192   34.753   27.643    0.441    0.810 
 3382  107.326    3.471    3.192   34.753   27.643    0.441    0.828 
 3384  107.499    3.471    3.193   34.753   27.643    0.417    0.834 
 3385  107.673    3.471    3.193   34.753   27.643    0.417    0.834 
 3387  107.846    3.473    3.193   34.753   27.643    0.417    0.841 
 3390  108.020    3.473    3.193   34.753   27.643    0.394    0.847 
 3392  108.194    3.474    3.193   34.753   27.643    0.394    0.850 
 3393  108.367    3.474    3.193   34.753   27.643    0.394    0.850 
 3395  108.541    3.474    3.193   34.753   27.643    0.417    0.850 
 3397  108.714    3.474    3.193   34.753   27.643    0.417    0.850 
 3400  109.061    3.476    3.193   34.753   27.643    0.441    0.841 
 3403  109.235    3.476    3.193   34.753   27.643    0.487    0.844 
 3404  109.409    3.476    3.193   34.753   27.643    0.487    0.837 
 3406  109.582    3.476    3.193   34.753   27.643    0.487    0.837 
 3408  109.756    3.476    3.193   34.753   27.643    0.487    0.831 
 3409  109.929    3.476    3.193   34.753   27.643    0.487    0.831 
 3412  110.103    3.477    3.193   34.753   27.643    0.464    0.831 
 3413  110.277    3.477    3.193   34.753   27.643    0.464    0.831 
 3415  110.450    3.477    3.193   34.753   27.643    0.464    0.831 
 3416  110.624    3.477    3.193   34.753   27.643    0.464    0.831 
 3419  110.797    3.477    3.193   34.753   27.643    0.487    0.837 
 3421  110.971    3.478    3.194   34.756   27.645    0.464    0.837 
 3422  111.144    3.479    3.194   34.756   27.645    0.441    0.837 
 3425  111.318    3.479    3.194   34.756   27.645    0.441    0.837 
 3428  111.492    3.480    3.194   34.756   27.645    0.441    0.837 
 3429  111.665    3.480    3.194   34.756   27.645    0.417    0.834 
 3431  111.839    3.481    3.194   34.757   27.646    0.417    0.834 
 3432  112.012    3.481    3.194   34.757   27.646    0.417    0.834 
 3434  112.186    3.481    3.194   34.757   27.646    0.417    0.831 
 3436  112.359    3.482    3.194   34.758   27.646    0.417    0.825 
 3437  112.533    3.482    3.194   34.759   27.646    0.441    0.831 
 3438  112.707    3.483    3.194   34.759   27.646    0.441    0.825 
 3440  113.054    3.484    3.194   34.759   27.646    0.441    0.816 
 3442  113.227    3.484    3.194   34.759   27.646    0.441    0.813 
 3443  113.401    3.484    3.194   34.759   27.646    0.441    0.813 
 3444  113.574    3.486    3.194   34.759   27.646    0.441    0.813 
 3446  113.922    3.487    3.195   34.759   27.647    0.464    0.813 
 3448  114.095    3.491    3.195   34.759   27.647    0.441    0.813 
 3450  114.442    3.495    3.195   34.762   27.648    0.464    0.810 
 3452  114.616    3.495    3.196   34.762   27.648    0.464    0.813 
 3454  114.789    3.495    3.196   34.762   27.648    0.464    0.819 
 3456  114.963    3.496    3.196   34.762   27.648    0.464    0.822 
 3457  115.137    3.496    3.196   34.762   27.648    0.464    0.822 
 3458  115.310    3.496    3.196   34.763   27.649    0.464    0.819 
 3462  115.484    3.496    3.196   34.763   27.649    0.417    0.819 
 3463  115.657    3.496    3.196   34.763   27.649    0.417    0.813 
 3466  115.831    3.496    3.196   34.763   27.649    0.417    0.804 
 3469  116.004    3.497    3.196   34.763   27.649    0.417    0.804 
 3472  116.178    3.498    3.196   34.764   27.649    0.417    0.822 
 3474  116.352    3.500    3.196   34.765   27.649    0.394    0.825 
 3476  116.525    3.500    3.196   34.765   27.649    0.417    0.825 
 3478  116.699    3.500    3.196   34.765   27.649    0.417    0.825 
 3479  116.872    3.502    3.196   34.765   27.649    0.417    0.828 
 3481  117.046    3.503    3.197   34.765   27.649    0.417    0.828 
 3482  117.219    3.506    3.197   34.764   27.649    0.464    0.828 
 3484  117.393    3.509    3.197   34.764   27.649    0.417    0.828 
 3485  117.567    3.510    3.197   34.763   27.649    0.417    0.828 
 3486  117.740    3.510    3.197   34.763   27.649    0.417    0.828 
 3487  117.914    3.511    3.198   34.764   27.650    0.394    0.828 
 3488  118.087    3.512    3.198   34.765   27.650    0.417    0.831 
 3489  118.261    3.514    3.198   34.765   27.650    0.417    0.831 
 3490  118.434    3.515    3.198   34.766   27.650    0.417    0.831 
 3491  118.608    3.516    3.198   34.767   27.650    0.417    0.831 
 3493  118.781    3.517    3.198   34.768   27.651    0.417    0.831 
 3494  118.955    3.517    3.198   34.768   27.651    0.417    0.831 
 3496  119.129    3.518    3.198   34.770   27.652    0.417    0.831 
 3497  119.302    3.518    3.198   34.771   27.653    0.417    0.831 
 3499  119.476    3.518    3.199   34.774   27.656    0.417    0.831 
 3501  119.649    3.518    3.199   34.774   27.656    0.417    0.834 
 3503  119.823    3.518    3.199   34.774   27.656    0.417    0.834 
 3504  119.996    3.518    3.199   34.774   27.656    0.417    0.834 
 3508  120.170    3.518    3.199   34.774   27.656    0.417    0.834 
 3512  120.344    3.518    3.199   34.774   27.656    0.441    0.834 
 3515  120.517    3.518    3.199   34.774   27.656    0.417    0.834 
 3519  120.691    3.518    3.199   34.774   27.656    0.417    0.831 
 3523  120.864    3.518    3.199   34.774   27.656    0.417    0.825 
 3525  121.038    3.518    3.199   34.774   27.656    0.417    0.825 
 3527  121.211    3.518    3.199   34.774   27.656    0.417    0.825 
 3528  121.385    3.518    3.199   34.774   27.655    0.417    0.825 
 3530  121.559    3.518    3.199   34.774   27.655    0.417    0.828 
 3532  121.732    3.519    3.199   34.773   27.654    0.417    0.834 
 3533  121.906    3.519    3.199   34.773   27.654    0.417    0.834 
 3534  122.079    3.519    3.199   34.773   27.654    0.417    0.834 
 3535  122.253    3.519    3.199   34.772   27.654    0.417    0.834 
 3536  122.426    3.519    3.199   34.772   27.654    0.417    0.834 
 3537  122.600    3.519    3.199   34.772   27.654    0.394    0.834 
 3538  122.773    3.519    3.199   34.772   27.654    0.394    0.837 
 3539  122.947    3.519    3.199   34.772   27.654    0.417    0.837 
 3541  123.294    3.520    3.199   34.772   27.654    0.417    0.837 
 3542  123.468    3.520    3.199   34.772   27.654    0.394    0.837 
 3543  123.641    3.520    3.199   34.772   27.654    0.394    0.837 
 3544  123.815    3.520    3.199   34.772   27.654    0.394    0.837 
 3545  123.988    3.521    3.199   34.772   27.654    0.394    0.837 
 3546  124.162    3.522    3.199   34.772   27.653    0.394    0.837 
 3547  124.509    3.522    3.199   34.772   27.653    0.394    0.837 
 3550  124.683    3.523    3.199   34.772   27.653    0.394    0.837 
 3551  124.856    3.523    3.199   34.771   27.653    0.394    0.837 
 3552  125.030    3.524    3.199   34.771   27.653    0.394    0.837 
 3553  125.203    3.525    3.200   34.771   27.653    0.394    0.837 
 3554  125.377    3.526    3.200   34.771   27.652    0.394    0.837 
 3555  125.551    3.527    3.200   34.771   27.652    0.394    0.837 
 3556  125.724    3.528    3.200   34.771   27.652    0.348    0.837 
 3558  125.898    3.528    3.200   34.771   27.652    0.394    0.834 
 3560  126.071    3.529    3.200   34.771   27.652    0.348    0.834 
 3563  126.245    3.529    3.200   34.771   27.652    0.371    0.834 
 3564  126.418    3.529    3.200   34.771   27.652    0.394    0.834 
 3566  126.592    3.529    3.200   34.772   27.652    0.348    0.834 
 3569  126.765    3.529    3.200   34.772   27.652    0.394    0.831 
 3573  126.939    3.529    3.200   34.772   27.652    0.394    0.831 
 3574  127.113    3.529    3.200   34.772   27.652    0.394    0.831 
 3579  127.286    3.529    3.200   34.772   27.652    0.394    0.831 
 3583  127.460    3.529    3.200   34.772   27.652    0.394    0.831 
 3585  127.633    3.529    3.200   34.772   27.652    0.371    0.828 
 3586  127.807    3.529    3.200   34.772   27.652    0.371    0.828 
 3589  127.980    3.525    3.200   34.775   27.655    0.371    0.825 
 3590  128.154    3.525    3.200   34.775   27.655    0.371    0.825 
 3592  128.327    3.525    3.200   34.775   27.655    0.371    0.825 
 3593  128.501    3.525    3.200   34.775   27.656    0.348    0.825 
 3595  128.675    3.524    3.200   34.775   27.656    0.371    0.825 
 3596  128.848    3.524    3.200   34.775   27.656    0.394    0.825 
 3597  129.022    3.524    3.200   34.775   27.656    0.417    0.825 
 3598  129.195    3.524    3.200   34.776   27.656    0.394    0.825 
 3599  129.369    3.524    3.200   34.776   27.656    0.394    0.825 
 3601  129.542    3.523    3.200   34.776   27.657    0.371    0.825 
 3602  129.716    3.522    3.200   34.777   27.658    0.371    0.825 
 3603  129.890    3.521    3.200   34.778   27.658    0.371    0.825 
 3604  130.063    3.521    3.200   34.778   27.658    0.394    0.825 
 3606  130.237    3.520    3.200   34.779   27.659    0.394    0.825 
 3607  130.584    3.519    3.200   34.779   27.659    0.417    0.828 
 3609  130.757    3.519    3.200   34.779   27.659    0.441    0.828 
 3610  130.931    3.519    3.200   34.779   27.659    0.464    0.828 
 3611  131.104    3.519    3.200   34.779   27.659    0.487    0.828 
 3613  131.278    3.519    3.200   34.779   27.659    0.487    0.831 
 3614  131.452    3.519    3.200   34.779   27.659    0.487    0.828 
 3616  131.625    3.519    3.200   34.779   27.659    0.487    0.828 
 3617  131.799    3.519    3.200   34.779   27.659    0.487    0.828 
 3619  131.972    3.519    3.200   34.779   27.659    0.487    0.828 
 3621  132.146    3.519    3.200   34.779   27.659    0.510    0.828 
 3622  132.319    3.519    3.200   34.779   27.659    0.510    0.828 
 3624  132.493    3.520    3.200   34.778   27.658    0.510    0.828 
 3626  132.666    3.520    3.200   34.778   27.658    0.510    0.828 
 3628  132.840    3.520    3.200   34.778   27.658    0.510    0.831 
 3630  133.014    3.521    3.200   34.778   27.658    0.510    0.831 
 3632  133.187    3.521    3.200   34.778   27.658    0.510    0.828 
 3636  133.361    3.522    3.200   34.778   27.658    0.487    0.828 
 3638  133.534    3.522    3.200   34.778   27.658    0.487    0.828 
 3639  133.708    3.522    3.200   34.778   27.658    0.464    0.828 
 3641  133.881    3.522    3.200   34.778   27.658    0.441    0.828 
 3644  134.055    3.523    3.200   34.778   27.658    0.417    0.825 
 3647  134.228    3.526    3.200   34.778   27.658    0.417    0.825 
 3650  134.402    3.535    3.202   34.779   27.658    0.394    0.822 
 3651  134.576    3.536    3.202   34.779   27.658    0.371    0.822 
 3653  134.749    3.536    3.202   34.779   27.658    0.371    0.822 
 3654  134.923    3.537    3.202   34.779   27.658    0.394    0.822 
 3656  135.096    3.538    3.202   34.779   27.658    0.371    0.822 
 3657  135.270    3.538    3.202   34.779   27.658    0.348    0.822 
 3658  135.443    3.539    3.202   34.779   27.658    0.371    0.822 
 3660  135.617    3.539    3.202   34.779   27.658    0.348    0.825 
 3661  135.964    3.539    3.202   34.779   27.658    0.348    0.825 
 3663  136.138    3.539    3.202   34.779   27.658    0.348    0.831 
 3665  136.311    3.539    3.202   34.779   27.658    0.348    0.831 
 3666  136.658    3.540    3.202   34.778   27.657    0.348    0.831 
 3668  136.832    3.540    3.202   34.778   27.656    0.348    0.831 
 3669  137.005    3.540    3.202   34.778   27.656    0.348    0.831 
 3670  137.352    3.540    3.202   34.778   27.656    0.348    0.831 
 3672  137.526    3.540    3.202   34.778   27.656    0.348    0.831 
 3673  137.700    3.540    3.202   34.778   27.656    0.394    0.831 
 3674  137.873    3.540    3.202   34.778   27.656    0.394    0.831 
 3676  138.047    3.540    3.202   34.777   27.656    0.394    0.831 
 3677  138.220    3.540    3.202   34.777   27.656    0.394    0.831 
 3679  138.394    3.540    3.202   34.777   27.656    0.394    0.831 
 3680  138.567    3.540    3.202   34.777   27.656    0.394    0.831 
 3682  138.741    3.540    3.202   34.777   27.656    0.394    0.831 
 3685  138.914    3.540    3.202   34.777   27.656    0.394    0.831 
 3687  139.088    3.540    3.202   34.777   27.656    0.394    0.828 
 3690  139.262    3.540    3.202   34.777   27.656    0.417    0.828 
 3694  139.435    3.540    3.202   34.777   27.656    0.394    0.834 
 3698  139.609    3.540    3.202   34.777   27.656    0.371    0.831 
 3701  139.782    3.540    3.202   34.777   27.656    0.371    0.825 
 3703  139.956    3.540    3.202   34.777   27.656    0.371    0.822 
 3705  140.129    3.540    3.202   34.777   27.656    0.371    0.822 
 3707  140.303    3.541    3.202   34.777   27.656    0.371    0.822 
 3709  140.476    3.541    3.203   34.781   27.658    0.371    0.822 
 3711  140.650    3.541    3.203   34.781   27.658    0.371    0.822 
 3712  140.823    3.541    3.203   34.781   27.658    0.371    0.822 
 3713  140.997    3.541    3.203   34.781   27.658    0.371    0.822 
 3714  141.171    3.543    3.203   34.781   27.658    0.371    0.822 
 3716  141.344    3.544    3.203   34.781   27.658    0.371    0.822 
 3717  141.518    3.545    3.203   34.781   27.658    0.371    0.825 
 3718  141.691    3.545    3.203   34.781   27.658    0.371    0.828 
 3719  141.865    3.545    3.203   34.781   27.658    0.371    0.828 
 3720  142.038    3.545    3.203   34.781   27.658    0.371    0.831 
 3722  142.212    3.546    3.203   34.781   27.658    0.394    0.831 
 3723  142.385    3.546    3.203   34.781   27.658    0.394    0.831 
 3724  142.559    3.546    3.203   34.781   27.658    0.394    0.831 
 3725  142.733    3.546    3.203   34.781   27.658    0.394    0.831 
 3727  142.906    3.546    3.203   34.781   27.658    0.394    0.831 
 3728  143.080    3.546    3.203   34.781   27.658    0.394    0.831 
 3729  143.253    3.546    3.203   34.781   27.658    0.394    0.831 
 3731  143.427    3.547    3.203   34.781   27.658    0.394    0.831 
 3733  143.600    3.547    3.203   34.781   27.658    0.394    0.828 
 3734  143.774    3.548    3.203   34.781   27.658    0.394    0.825 
 3735  143.947    3.548    3.203   34.781   27.658    0.394    0.825 
 3737  144.121    3.549    3.204   34.787   27.662    0.394    0.822 
 3739  144.294    3.549    3.204   34.787   27.662    0.394    0.822 
 3741  144.468    3.549    3.204   34.787   27.662    0.394    0.822 
 3743  144.642    3.550    3.204   34.787   27.662    0.394    0.822 
 3745  144.815    3.550    3.204   34.787   27.662    0.417    0.822 
 3747  144.989    3.550    3.204   34.787   27.662    0.417    0.822 
 3751  145.162    3.550    3.204   34.787   27.662    0.394    0.825 
 3754  145.336    3.550    3.204   34.787   27.662    0.371    0.825 
 3759  145.509    3.550    3.204   34.787   27.662    0.394    0.825 
 3761  145.683    3.550    3.204   34.787   27.662    0.394    0.825 
 3763  145.856    3.550    3.204   34.787   27.662    0.371    0.825 
 3765  146.030    3.550    3.204   34.786   27.662    0.371    0.825 
 3767  146.203    3.550    3.204   34.786   27.662    0.371    0.825 
 3769  146.551    3.550    3.204   34.786   27.662    0.371    0.825 
 3772  146.724    3.551    3.204   34.785   27.661    0.371    0.825 
 3773  146.898    3.551    3.204   34.785   27.661    0.371    0.825 
 3774  147.245    3.551    3.204   34.785   27.661    0.371    0.825 
 3775  147.418    3.551    3.204   34.785   27.661    0.371    0.825 
 3776  147.592    3.551    3.204   34.785   27.661    0.371    0.825 
 3777  147.765    3.552    3.204   34.783   27.660    0.394    0.825 
 3778  147.939    3.552    3.204   34.783   27.660    0.394    0.825 
 3780  148.286    3.553    3.204   34.783   27.660    0.394    0.825 
 3781  148.460    3.553    3.204   34.783   27.660    0.394    0.825 
 3783  148.633    3.553    3.204   34.783   27.660    0.417    0.828 
 3784  148.980    3.553    3.204   34.783   27.660    0.417    0.828 
 3786  149.154    3.553    3.204   34.783   27.660    0.441    0.831 
 3788  149.327    3.554    3.204   34.783   27.660    0.441    0.834 
 3789  149.501    3.554    3.204   34.783   27.660    0.441    0.834 
 3790  149.674    3.554    3.204   34.783   27.660    0.441    0.834 
 3792  149.848    3.554    3.204   34.783   27.660    0.464    0.834 
 3794  150.021    3.555    3.205   34.788   27.662    0.464    0.834 
 3796  150.195    3.555    3.205   34.788   27.662    0.464    0.834 
 3798  150.369    3.556    3.205   34.788   27.662    0.394    0.831 
 3803  150.542    3.556    3.205   34.788   27.662    0.394    0.831 
 3805  150.716    3.557    3.205   34.788   27.662    0.394    0.825 
 3809  150.889    3.557    3.205   34.788   27.662    0.348    0.825 
 3811  151.063    3.557    3.205   34.788   27.662    0.348    0.822 
 3814  151.410    3.557    3.205   34.788   27.662    0.371    0.822 
 3818  151.583    3.557    3.205   34.788   27.662    0.371    0.819 
 3819  151.757    3.557    3.205   34.788   27.662    0.371    0.819 
 3821  151.930    3.557    3.205   34.788   27.662    0.371    0.819 
 3823  152.104    3.557    3.205   34.788   27.662    0.371    0.819 
 3824  152.278    3.558    3.205   34.787   27.661    0.371    0.819 
 3826  152.451    3.558    3.205   34.786   27.661    0.371    0.819 
 3827  152.625    3.558    3.205   34.786   27.661    0.371    0.819 
 3829  152.798    3.558    3.205   34.786   27.661    0.348    0.819 
 3830  152.972    3.559    3.205   34.785   27.660    0.371    0.819 
 3831  153.145    3.559    3.205   34.785   27.660    0.371    0.819 
 3832  153.319    3.559    3.205   34.785   27.660    0.371    0.819 
 3834  153.666    3.559    3.205   34.785   27.660    0.371    0.822 
 3836  153.839    3.559    3.205   34.785   27.660    0.348    0.822 
 3837  154.013    3.559    3.205   34.784   27.660    0.371    0.822 
 3839  154.186    3.559    3.205   34.784   27.660    0.371    0.819 
 3840  154.360    3.559    3.205   34.784   27.660    0.371    0.819 
 3841  154.534    3.559    3.205   34.784   27.660    0.371    0.822 
 3843  154.707    3.559    3.205   34.784   27.660    0.371    0.822 
 3844  154.881    3.559    3.205   34.784   27.660    0.371    0.822 
 3845  155.054    3.559    3.205   34.784   27.660    0.348    0.822 
 3848  155.228    3.560    3.205   34.784   27.660    0.371    0.822 
 3849  155.401    3.560    3.205   34.784   27.660    0.371    0.822 
 3850  155.575    3.560    3.205   34.784   27.660    0.371    0.822 
 3852  155.748    3.560    3.205   34.784   27.660    0.394    0.822 
 3853  155.922    3.560    3.206   34.786   27.661    0.394    0.825 
 3856  156.095    3.561    3.206   34.787   27.662    0.394    0.825 
 3858  156.269    3.561    3.206   34.787   27.662    0.371    0.828 
 3861  156.442    3.562    3.206   34.788   27.662    0.371    0.831 
 3864  156.616    3.562    3.206   34.790   27.662    0.371    0.828 
 3867  156.790    3.563    3.206   34.791   27.662    0.371    0.828 
 3869  156.963    3.564    3.206   34.791   27.662    0.348    0.828 
 3871  157.137    3.565    3.206   34.791   27.662    0.348    0.828 
 3873  157.310    3.566    3.206   34.791   27.662    0.348    0.828 
 3875  157.484    3.566    3.206   34.791   27.663    0.348    0.828 
 3877  157.657    3.567    3.206   34.791   27.663    0.348    0.825 
 3879  157.831    3.568    3.207   34.791   27.663    0.348    0.822 
 3881  158.178    3.571    3.207   34.790   27.663    0.348    0.822 
 3883  158.351    3.573    3.207   34.790   27.663    0.348    0.819 
 3884  158.525    3.573    3.207   34.790   27.663    0.348    0.819 
 3885  158.698    3.573    3.207   34.790   27.663    0.348    0.816 
 3886  158.872    3.573    3.207   34.790   27.663    0.348    0.816 
 3888  159.046    3.574    3.207   34.790   27.663    0.348    0.813 
 3889  159.219    3.574    3.207   34.791   27.663    0.348    0.813 
 3890  159.393    3.574    3.207   34.791   27.663    0.348    0.813 
 3891  159.566    3.574    3.207   34.791   27.663    0.348    0.813 
 3892  159.740    3.575    3.207   34.791   27.663    0.348    0.816 
 3893  159.913    3.575    3.207   34.791   27.663    0.348    0.816 
 3895  160.087    3.575    3.207   34.791   27.663    0.371    0.810 
 3896  160.434    3.575    3.208   34.794   27.665    0.371    0.810 
 3899  160.607    3.576    3.208   34.794   27.665    0.371    0.810 
 3900  160.781    3.577    3.208   34.794   27.665    0.371    0.810 
 3902  160.954    3.577    3.208   34.794   27.665    0.371    0.816 
 3904  161.128    3.578    3.208   34.794   27.665    0.371    0.816 
 3906  161.302    3.578    3.208   34.794   27.665    0.371    0.819 
 3908  161.475    3.579    3.208   34.794   27.665    0.394    0.819 
 3910  161.649    3.580    3.208   34.794   27.665    0.417    0.819 
 3914  161.822    3.580    3.208   34.794   27.665    0.371    0.819 
 3917  161.996    3.580    3.208   34.794   27.665    0.371    0.819 
 3919  162.169    3.580    3.208   34.795   27.666    0.371    0.819 
 3922  162.343    3.580    3.208   34.795   27.666    0.371    0.819 
 3923  162.516    3.580    3.208   34.795   27.666    0.371    0.819 
 3926  162.690    3.580    3.208   34.794   27.666    0.371    0.819 
 3927  162.863    3.579    3.208   34.794   27.666    0.348    0.819 
 3929  163.037    3.579    3.208   34.794   27.666    0.324    0.819 
 3930  163.210    3.579    3.208   34.794   27.666    0.324    0.819 
 3932  163.384    3.578    3.208   34.794   27.666    0.324    0.819 
 3934  163.557    3.578    3.208   34.794   27.666    0.324    0.819 
 3935  163.731    3.578    3.208   34.794   27.666    0.324    0.819 
 3936  163.905    3.578    3.208   34.794   27.666    0.324    0.819 
 3938  164.252    3.578    3.208   34.794   27.666    0.324    0.819 
 3940  164.425    3.578    3.208   34.794   27.666    0.324    0.819 
 3941  164.599    3.578    3.208   34.794   27.666    0.324    0.819 
 3943  164.772    3.578    3.208   34.794   27.666    0.278    0.819 
 3944  164.946    3.578    3.208   34.794   27.666    0.278    0.819 
 3946  165.293    3.579    3.208   34.794   27.666    0.324    0.819 
 3949  165.466    3.580    3.208   34.794   27.666    0.278    0.819 
 3950  165.640    3.580    3.208   34.794   27.666    0.255    0.819 
 3951  165.813    3.580    3.208   34.794   27.666    0.255    0.819 
 3953  165.987    3.580    3.208   34.794   27.666    0.278    0.819 
 3954  166.160    3.580    3.208   34.794   27.666    0.278    0.819 
 3957  166.334    3.580    3.208   34.794   27.666    0.301    0.819 
 3958  166.507    3.581    3.208   34.794   27.666    0.301    0.819 
 3960  166.681    3.582    3.209   34.794   27.666    0.324    0.819 
 3961  166.855    3.582    3.209   34.794   27.666    0.348    0.819 
 3965  167.028    3.586    3.209   34.794   27.666    0.371    0.822 
 3966  167.202    3.587    3.209   34.795   27.666    0.348    0.822 
 3969  167.375    3.588    3.209   34.797   27.667    0.394    0.822 
 3972  167.549    3.589    3.209   34.798   27.667    0.394    0.822 
 3975  167.722    3.590    3.210   34.799   27.667    0.394    0.822 
 3976  167.896    3.591    3.210   34.799   27.667    0.348    0.822 
 3979  168.069    3.591    3.210   34.799   27.667    0.348    0.822 
 3980  168.243    3.595    3.210   34.799   27.667    0.348    0.822 
 3982  168.416    3.599    3.210   34.799   27.667    0.348    0.822 
 3984  168.590    3.601    3.211   34.799   27.668    0.348    0.822 
 3985  168.763    3.602    3.211   34.798   27.668    0.348    0.819 
 3986  168.937    3.602    3.211   34.799   27.668    0.348    0.819 
 3989  169.110    3.604    3.211   34.799   27.668    0.348    0.819 
 3990  169.284    3.605    3.211   34.799   27.668    0.371    0.819 
 3991  169.457    3.605    3.211   34.800   27.668    0.371    0.819 
 3992  169.631    3.605    3.211   34.800   27.668    0.371    0.819 
 3994  169.978    3.606    3.211   34.800   27.668    0.371    0.819 
 3996  170.152    3.606    3.211   34.800   27.668    0.348    0.819 
 3997  170.325    3.606    3.211   34.802   27.668    0.348    0.819 
 3998  170.499    3.606    3.211   34.802   27.668    0.348    0.819 
 4000  170.672    3.606    3.211   34.802   27.668    0.324    0.819 
 4001  170.846    3.608    3.212   34.801   27.668    0.324    0.819 
 4003  171.019    3.609    3.212   34.801   27.668    0.324    0.819 
 4004  171.193    3.609    3.212   34.801   27.669    0.301    0.819 
 4005  171.366    3.609    3.212   34.801   27.669    0.301    0.819 
 4007  171.540    3.610    3.212   34.801   27.669    0.301    0.819 
 4009  171.713    3.610    3.212   34.802   27.669    0.301    0.816 
 4010  171.887    3.610    3.212   34.804   27.669    0.278    0.816 
 4011  172.060    3.610    3.212   34.804   27.669    0.278    0.816 
 4014  172.234    3.612    3.212   34.804   27.669    0.301    0.813 
 4016  172.407    3.613    3.212   34.805   27.669    0.324    0.813 
 4017  172.581    3.613    3.212   34.805   27.669    0.324    0.813 
 4018  172.755    3.614    3.212   34.805   27.669    0.348    0.813 
 4021  172.928    3.615    3.212   34.804   27.669    0.348    0.813 
 4022  173.102    3.615    3.212   34.804   27.669    0.348    0.813 
 4024  173.275    3.616    3.213   34.804   27.669    0.348    0.813 
 4027  173.449    3.618    3.213   34.804   27.669    0.348    0.813 
 4030  173.622    3.618    3.213   34.803   27.669    0.348    0.813 
 4032  173.796    3.618    3.213   34.803   27.669    0.348    0.813 
 4034  173.969    3.619    3.213   34.803   27.668    0.348    0.816 
 4036  174.143    3.619    3.213   34.803   27.668    0.348    0.816 
 4039  174.316    3.619    3.213   34.803   27.668    0.324    0.819 
 4041  174.490    3.621    3.213   34.803   27.668    0.324    0.819 
 4045  174.663    3.625    3.213   34.803   27.668    0.371    0.819 
 4046  174.837    3.625    3.213   34.803   27.668    0.394    0.819 
 4049  175.010    3.628    3.214   34.803   27.668    0.394    0.819 
 4052  175.184    3.632    3.214   34.803   27.667    0.348    0.816 
 4054  175.357    3.632    3.214   34.803   27.667    0.324    0.816 
 4056  175.531    3.632    3.214   34.803   27.667    0.348    0.816 
 4057  175.704    3.632    3.214   34.803   27.667    0.348    0.816 
 4059  175.878    3.632    3.214   34.803   27.667    0.348    0.813 
 4061  176.051    3.632    3.214   34.803   27.667    0.348    0.813 
 4062  176.225    3.632    3.214   34.803   27.667    0.348    0.813 
 4064  176.399    3.632    3.214   34.803   27.667    0.348    0.816 
 4065  176.572    3.632    3.214   34.803   27.667    0.348    0.816 
 4066  176.746    3.632    3.214   34.803   27.667    0.348    0.816 
 4068  176.919    3.632    3.214   34.803   27.667    0.324    0.816 
 4069  177.093    3.632    3.214   34.803   27.667    0.324    0.816 
 4070  177.266    3.634    3.214   34.803   27.667    0.324    0.816 
 4071  177.440    3.634    3.215   34.804   27.667    0.324    0.813 
 4072  177.613    3.635    3.215   34.805   27.669    0.324    0.813 
 4073  177.787    3.636    3.215   34.805   27.669    0.348    0.813 
 4074  177.960    3.636    3.215   34.805   27.669    0.348    0.813 
 4075  178.134    3.638    3.215   34.805   27.669    0.348    0.813 
 4077  178.307    3.639    3.215   34.806   27.669    0.324    0.813 
 4078  178.654    3.641    3.215   34.807   27.670    0.324    0.813 
 4080  178.828    3.643    3.216   34.809   27.671    0.324    0.813 
 4081  179.001    3.644    3.216   34.809   27.671    0.324    0.816 
 4083  179.175    3.645    3.216   34.809   27.671    0.301    0.816 
 4084  179.348    3.647    3.216   34.811   27.671    0.324    0.816 
 4086  179.522    3.650    3.216   34.811   27.671    0.301    0.813 
 4087  179.695    3.650    3.216   34.811   27.671    0.301    0.813 
 4089  179.869    3.650    3.216   34.811   27.671    0.301    0.813 
 4091  180.042    3.651    3.216   34.811   27.671    0.301    0.813 
 4093  180.216    3.652    3.217   34.811   27.671    0.301    0.813 
 4095  180.390    3.652    3.217   34.811   27.671    0.301    0.813 
 4097  180.563    3.652    3.217   34.811   27.671    0.301    0.813 
 4099  180.737    3.653    3.217   34.811   27.671    0.324    0.813 
 4101  180.910    3.653    3.217   34.811   27.671    0.324    0.813 
 4103  181.084    3.654    3.217   34.810   27.670    0.348    0.813 
 4104  181.257    3.654    3.217   34.810   27.670    0.348    0.813 
 4106  181.431    3.655    3.217   34.810   27.670    0.324    0.813 
 4109  181.604    3.655    3.217   34.810   27.670    0.348    0.813 
 4110  181.778    3.655    3.217   34.810   27.670    0.348    0.813 
 4111  181.951    3.656    3.217   34.810   27.670    0.348    0.813 
 4113  182.125    3.656    3.217   34.810   27.670    0.348    0.813 
 4114  182.298    3.656    3.217   34.810   27.670    0.324    0.813 
 4116  182.472    3.656    3.217   34.810   27.670    0.324    0.816 
 4118  182.819    3.656    3.217   34.809   27.670    0.324    0.813 
 4121  182.992    3.656    3.217   34.809   27.670    0.348    0.813 
 4122  183.166    3.656    3.217   34.809   27.670    0.348    0.810 
 4124  183.339    3.656    3.217   34.809   27.670    0.324    0.810 
 4125  183.513    3.656    3.217   34.809   27.670    0.348    0.810 
 4127  183.686    3.656    3.217   34.809   27.670    0.348    0.810 
 4128  183.860    3.656    3.217   34.809   27.670    0.371    0.810 
 4129  184.033    3.656    3.217   34.809   27.670    0.371    0.810 
 4131  184.207    3.655    3.217   34.809   27.670    0.371    0.810 
 4133  184.380    3.655    3.217   34.809   27.670    0.371    0.810 
 4134  184.554    3.655    3.217   34.809   27.670    0.371    0.810 
 4136  184.728    3.655    3.217   34.809   27.670    0.371    0.810 
 4137  184.901    3.655    3.217   34.809   27.670    0.371    0.810 
 4139  185.075    3.655    3.217   34.809   27.670    0.371    0.810 
 4140  185.248    3.655    3.217   34.809   27.670    0.348    0.810 
 4142  185.422    3.655    3.217   34.809   27.670    0.348    0.810 
 4143  185.595    3.655    3.217   34.809   27.670    0.348    0.810 
 4145  185.769    3.655    3.217   34.809   27.670    0.348    0.813 
 4146  185.942    3.655    3.217   34.809   27.670    0.324    0.813 
 4147  186.116    3.655    3.217   34.809   27.670    0.324    0.813 
 4149  186.289    3.655    3.217   34.809   27.670    0.324    0.813 
 4151  186.463    3.655    3.217   34.809   27.670    0.324    0.813 
 4153  186.636    3.654    3.217   34.809   27.670    0.324    0.813 
 4154  186.810    3.653    3.217   34.810   27.671    0.324    0.810 
 4156  186.983    3.651    3.217   34.812   27.673    0.348    0.813 
 4159  187.157    3.651    3.217   34.812   27.673    0.324    0.813 
 4161  187.330    3.651    3.217   34.812   27.673    0.324    0.813 
 4162  187.504    3.650    3.217   34.813   27.673    0.324    0.813 
 4166  187.677    3.650    3.217   34.813   27.673    0.348    0.813 
 4169  187.851    3.650    3.217   34.813   27.673    0.348    0.807 
 4172  188.024    3.649    3.217   34.814   27.674    0.348    0.810 
 4173  188.198    3.649    3.217   34.814   27.674    0.324    0.810 
 4176  188.371    3.647    3.217   34.816   27.676    0.324    0.810 
 4178  188.545    3.647    3.217   34.816   27.676    0.324    0.810 
 4179  188.718    3.647    3.217   34.816   27.676    0.324    0.810 
 4181  188.892    3.647    3.217   34.816   27.676    0.324    0.810 
 4183  189.065    3.646    3.217   34.816   27.676    0.324    0.810 
 4184  189.239    3.646    3.217   34.816   27.676    0.324    0.810 
 4185  189.412    3.646    3.217   34.816   27.676    0.324    0.810 
 4186  189.586    3.646    3.217   34.816   27.676    0.324    0.810 
 4187  189.759    3.646    3.217   34.816   27.676    0.348    0.810 
 4188  189.933    3.646    3.217   34.816   27.676    0.348    0.810 
 4189  190.106    3.646    3.217   34.816   27.676    0.348    0.813 
 4190  190.280    3.646    3.217   34.816   27.676    0.324    0.813 
 4191  190.453    3.646    3.217   34.816   27.676    0.324    0.813 
 4192  190.627    3.646    3.217   34.816   27.676    0.324    0.813 
 4193  190.801    3.647    3.217   34.816   27.676    0.324    0.813 
 4194  190.974    3.648    3.217   34.816   27.676    0.324    0.813 
 4195  191.148    3.648    3.217   34.816   27.676    0.324    0.813 
 4197  191.495    3.649    3.217   34.816   27.676    0.324    0.813 
 4199  191.668    3.653    3.217   34.816   27.676    0.324    0.813 
 4200  191.842    3.655    3.218   34.816   27.676    0.324    0.813 
 4201  192.015    3.655    3.218   34.816   27.676    0.348    0.813 
 4202  192.189    3.655    3.218   34.816   27.676    0.324    0.813 
 4203  192.362    3.655    3.218   34.816   27.676    0.324    0.813 
 4205  192.536    3.655    3.218   34.816   27.676    0.301    0.813 
 4206  192.709    3.655    3.218   34.816   27.676    0.301    0.813 
 4208  192.883    3.655    3.218   34.817   27.676    0.301    0.813 
 4209  193.056    3.655    3.218   34.817   27.676    0.301    0.813 
 4212  193.230    3.655    3.218   34.817   27.676    0.301    0.813 
 4213  193.403    3.655    3.218   34.817   27.676    0.301    0.813 
 4216  193.577    3.655    3.218   34.817   27.676    0.324    0.813 
 4219  193.750    3.655    3.218   34.817   27.676    0.324    0.810 
 4221  193.924    3.655    3.218   34.817   27.676    0.348    0.810 
 4224  194.097    3.655    3.218   34.817   27.676    0.371    0.810 
 4228  194.271    3.655    3.218   34.817   27.676    0.348    0.807 
 4230  194.444    3.655    3.218   34.817   27.676    0.324    0.807 
 4233  194.618    3.653    3.218   34.818   27.677    0.324    0.807 
 4235  194.791    3.652    3.218   34.818   27.677    0.324    0.807 
 4237  194.965    3.652    3.218   34.818   27.677    0.324    0.807 
 4239  195.138    3.652    3.218   34.818   27.677    0.301    0.807 
 4240  195.312    3.652    3.218   34.818   27.677    0.324    0.807 
 4241  195.485    3.652    3.218   34.818   27.677    0.301    0.807 
 4243  195.659    3.652    3.218   34.818   27.677    0.301    0.807 
 4244  195.832    3.652    3.218   34.818   27.677    0.301    0.807 
 4246  196.006    3.652    3.218   34.818   27.677    0.278    0.807 
 4248  196.353    3.652    3.218   34.818   27.677    0.301    0.807 
 4249  196.526    3.652    3.218   34.818   27.677    0.301    0.810 
 4251  196.700    3.652    3.218   34.818   27.677    0.301    0.813 
 4252  196.873    3.652    3.218   34.818   27.677    0.301    0.813 
 4253  197.047    3.652    3.218   34.818   27.677    0.301    0.813 
 4254  197.220    3.652    3.218   34.818   27.677    0.301    0.813 
 4255  197.394    3.652    3.218   34.818   27.677    0.301    0.813 
 4257  197.567    3.651    3.218   34.818   27.677    0.301    0.816 
 4258  197.741    3.651    3.218   34.818   27.677    0.301    0.816 
 4259  197.914    3.651    3.218   34.818   27.677    0.278    0.816 
 4260  198.088    3.651    3.218   34.818   27.677    0.301    0.816 
 4261  198.261    3.651    3.218   34.818   27.677    0.301    0.816 
 4263  198.608    3.649    3.218   34.818   27.678    0.301    0.816 
 4266  198.782    3.649    3.218   34.818   27.678    0.324    0.819 
 4267  198.955    3.649    3.218   34.818   27.678    0.324    0.819 
 4268  199.129    3.649    3.218   34.818   27.678    0.324    0.819 
 4270  199.302    3.648    3.218   34.818   27.678    0.348    0.816 
 4271  199.476    3.648    3.218   34.818   27.678    0.348    0.813 
 4272  199.649    3.648    3.218   34.818   27.678    0.348    0.813 
 4275  199.823    3.648    3.218   34.818   27.678    0.324    0.813 
 4276  199.996    3.648    3.217   34.819   27.678    0.348    0.810 
 4278  200.170    3.648    3.217   34.819   27.678    0.348    0.810 
 4280  200.343    3.648    3.217   34.819   27.678    0.348    0.810 
 4283  200.517    3.647    3.217   34.819   27.678    0.371    0.810 
 4286  200.690    3.647    3.217   34.819   27.678    0.394    0.810 
 4289  200.864    3.647    3.217   34.819   27.678    0.371    0.810 
 4293  201.038    3.647    3.217   34.819   27.678    0.348    0.810 
 4296  201.211    3.648    3.217   34.817   27.677    0.348    0.813 
 4298  201.385    3.648    3.218   34.815   27.675    0.348    0.813 
 4300  201.558    3.648    3.218   34.813   27.674    0.324    0.813 
 4302  201.732    3.648    3.218   34.813   27.674    0.301    0.813 
 4303  201.905    3.648    3.218   34.813   27.674    0.301    0.813 
 4305  202.079    3.648    3.218   34.813   27.674    0.301    0.813 
 4306  202.252    3.648    3.218   34.813   27.674    0.301    0.813 
 4307  202.426    3.648    3.218   34.813   27.674    0.301    0.816 
 4308  202.599    3.650    3.218   34.813   27.674    0.301    0.816 
 4309  202.773    3.652    3.218   34.813   27.674    0.301    0.816 
 4310  202.946    3.653    3.218   34.813   27.674    0.301    0.816 
 4311  203.293    3.653    3.218   34.815   27.674    0.301    0.816 
 4312  203.467    3.654    3.218   34.815   27.674    0.301    0.816 
 4313  203.640    3.654    3.218   34.815   27.674    0.301    0.816 
 4314  203.814    3.654    3.218   34.815   27.674    0.301    0.816 
 4315  203.987    3.655    3.218   34.815   27.674    0.301    0.816 
 4316  204.161    3.655    3.218   34.815   27.674    0.301    0.816 
 4317  204.334    3.655    3.218   34.815   27.674    0.278    0.816 
 4318  204.508    3.656    3.218   34.813   27.674    0.278    0.816 
 4319  204.681    3.657    3.219   34.813   27.674    0.278    0.816 
 4320  204.855    3.664    3.219   34.813   27.674    0.301    0.816 
 4321  205.028    3.667    3.220   34.817   27.674    0.301    0.816 
 4322  205.202    3.668    3.220   34.817   27.674    0.301    0.816 
 4323  205.375    3.668    3.220   34.817   27.674    0.301    0.816 
 4324  205.549    3.668    3.220   34.817   27.674    0.301    0.816 
 4325  205.722    3.668    3.220   34.817   27.674    0.301    0.816 
 4327  205.896    3.668    3.220   34.817   27.674    0.324    0.816 
 4328  206.069    3.671    3.220   34.817   27.674    0.324    0.816 
 4330  206.243    3.675    3.220   34.817   27.674    0.324    0.813 
 4333  206.416    3.678    3.221   34.817   27.674    0.324    0.813 
 4336  206.590    3.680    3.221   34.817   27.674    0.324    0.813 
 4341  206.763    3.680    3.221   34.817   27.674    0.348    0.810 
 4345  206.937    3.681    3.221   34.817   27.674    0.348    0.810 
 4347  207.110    3.681    3.221   34.817   27.673    0.324    0.813 
 4350  207.284    3.681    3.221   34.817   27.673    0.348    0.813 
 4352  207.457    3.681    3.221   34.817   27.673    0.348    0.813 
 4354  207.631    3.682    3.221   34.817   27.673    0.324    0.813 
 4356  207.978    3.682    3.221   34.816   27.672    0.348    0.813 
 4357  208.151    3.682    3.221   34.816   27.672    0.348    0.816 
 4359  208.325    3.681    3.221   34.816   27.672    0.348    0.819 
 4360  208.498    3.681    3.221   34.816   27.672    0.348    0.819 
 4361  208.672    3.682    3.221   34.816   27.672    0.348    0.819 
 4362  208.845    3.682    3.221   34.816   27.672    0.348    0.819 
 4363  209.019    3.682    3.221   34.816   27.672    0.348    0.819 
 4364  209.192    3.682    3.221   34.816   27.672    0.348    0.822 
 4365  209.366    3.683    3.221   34.816   27.672    0.348    0.822 
 4366  209.539    3.684    3.221   34.816   27.672    0.348    0.822 
 4367  209.713    3.684    3.221   34.816   27.672    0.348    0.822 
 4368  209.886    3.684    3.221   34.817   27.673    0.371    0.822 
 4369  210.060    3.684    3.221   34.817   27.673    0.371    0.822 
 4371  210.233    3.684    3.222   34.822   27.677    0.371    0.822 
 4372  210.407    3.684    3.222   34.822   27.677    0.371    0.822 
 4374  210.580    3.684    3.222   34.822   27.677    0.371    0.822 
 4375  210.754    3.685    3.222   34.822   27.677    0.371    0.819 
 4377  210.927    3.685    3.222   34.822   27.677    0.348    0.816 
 4378  211.101    3.685    3.222   34.822   27.677    0.348    0.816 
 4381  211.274    3.685    3.222   34.822   27.677    0.324    0.813 
 4383  211.448    3.685    3.222   34.822   27.677    0.324    0.813 
 4386  211.621    3.685    3.222   34.822   27.677    0.324    0.813 
 4388  211.795    3.685    3.222   34.822   27.677    0.324    0.813 
 4391  211.968    3.685    3.222   34.822   27.677    0.324    0.813 
 4393  212.142    3.685    3.222   34.822   27.677    0.324    0.816 
 4395  212.315    3.685    3.222   34.822   27.677    0.324    0.816 
 4398  212.489    3.685    3.222   34.822   27.677    0.324    0.816 
 4399  212.662    3.685    3.222   34.822   27.677    0.324    0.816 
 4401  212.836    3.685    3.222   34.822   27.677    0.324    0.813 
 4403  213.009    3.685    3.222   34.822   27.677    0.324    0.813 
 4405  213.182    3.685    3.222   34.822   27.677    0.324    0.813 
 4406  213.356    3.685    3.222   34.822   27.677    0.324    0.810 
 4408  213.529    3.685    3.222   34.821   27.677    0.324    0.810 
 4409  213.703    3.685    3.222   34.821   27.677    0.324    0.810 
 4410  213.876    3.685    3.222   34.821   27.676    0.324    0.810 
 4412  214.050    3.685    3.222   34.821   27.676    0.324    0.810 
 4413  214.223    3.685    3.222   34.821   27.676    0.324    0.810 
 4414  214.397    3.685    3.222   34.821   27.676    0.324    0.807 
 4415  214.570    3.685    3.222   34.821   27.676    0.324    0.807 
 4417  214.917    3.685    3.222   34.821   27.676    0.348    0.807 
 4418  215.091    3.685    3.222   34.821   27.676    0.348    0.807 
 4420  215.438    3.685    3.222   34.820   27.676    0.348    0.807 
 4422  215.611    3.686    3.222   34.819   27.675    0.348    0.810 
 4423  215.958    3.686    3.222   34.819   27.675    0.348    0.810 
 4424  216.132    3.686    3.222   34.819   27.675    0.348    0.810 
 4426  216.305    3.686    3.222   34.819   27.675    0.348    0.810 
 4427  216.479    3.686    3.222   34.819   27.675    0.348    0.810 
 4428  216.652    3.686    3.222   34.819   27.675    0.348    0.810 
 4429  216.826    3.686    3.222   34.819   27.675    0.348    0.810 
 4430  216.999    3.686    3.222   34.819   27.675    0.348    0.810 
 4431  217.173    3.686    3.222   34.819   27.675    0.348    0.810 
 4433  217.346    3.685    3.222   34.819   27.675    0.348    0.810 
 4435  217.520    3.685    3.222   34.819   27.675    0.348    0.813 
 4436  217.693    3.685    3.222   34.819   27.675    0.324    0.813 
 4438  217.867    3.684    3.222   34.820   27.675    0.278    0.813 
 4442  218.040    3.684    3.222   34.820   27.675    0.324    0.813 
 4444  218.214    3.684    3.222   34.820   27.675    0.278    0.813 
 4448  218.387    3.684    3.222   34.820   27.675    0.278    0.810 
 4451  218.561    3.683    3.222   34.820   27.675    0.278    0.810 
 4456  218.734    3.683    3.222   34.820   27.675    0.324    0.810 
 4458  218.908    3.683    3.222   34.820   27.675    0.324    0.810 
 4459  219.081    3.683    3.222   34.820   27.675    0.324    0.810 
 4462  219.255    3.683    3.222   34.820   27.675    0.324    0.813 
 4463  219.428    3.683    3.222   34.820   27.675    0.324    0.813 
 4465  219.602    3.683    3.222   34.820   27.675    0.324    0.813 
 4466  219.775    3.684    3.222   34.819   27.675    0.324    0.813 
 4467  219.949    3.685    3.222   34.818   27.674    0.324    0.813 
 4468  220.122    3.685    3.222   34.818   27.674    0.324    0.813 
 4469  220.296    3.685    3.222   34.818   27.674    0.324    0.813 
 4471  220.643    3.685    3.222   34.818   27.674    0.324    0.813 
 4472  220.816    3.685    3.222   34.818   27.674    0.301    0.813 
 4473  220.990    3.685    3.222   34.818   27.674    0.301    0.816 
 4474  221.163    3.685    3.222   34.818   27.674    0.301    0.816 
 4476  221.510    3.685    3.222   34.818   27.674    0.278    0.816 
 4477  221.684    3.685    3.222   34.818   27.674    0.301    0.816 
 4479  221.857    3.684    3.222   34.818   27.674    0.278    0.816 
 4480  222.031    3.684    3.222   34.818   27.674    0.278    0.816 
 4481  222.204    3.683    3.222   34.819   27.675    0.301    0.816 
 4482  222.378    3.683    3.222   34.819   27.675    0.301    0.816 
 4483  222.551    3.683    3.222   34.819   27.675    0.301    0.816 
 4485  222.725    3.682    3.222   34.819   27.675    0.301    0.816 
 4487  222.898    3.682    3.222   34.819   27.675    0.301    0.813 
 4489  223.071    3.681    3.222   34.819   27.675    0.301    0.813 
 4490  223.245    3.680    3.222   34.819   27.675    0.324    0.810 
 4492  223.418    3.680    3.222   34.819   27.675    0.324    0.810 
 4495  223.592    3.679    3.222   34.819   27.676    0.324    0.810 
 4498  223.765    3.678    3.222   34.819   27.676    0.324    0.810 
 4501  223.939    3.677    3.222   34.819   27.676    0.348    0.810 
 4503  224.112    3.674    3.222   34.820   27.676    0.324    0.810 
 4505  224.286    3.671    3.221   34.820   27.677    0.324    0.810 
 4507  224.459    3.670    3.221   34.820   27.677    0.324    0.810 
 4508  224.633    3.670    3.221   34.821   27.677    0.324    0.810 
 4510  224.806    3.670    3.221   34.821   27.677    0.324    0.810 
 4512  224.980    3.670    3.221   34.822   27.677    0.324    0.813 
 4514  225.153    3.670    3.221   34.822   27.677    0.301    0.813 
 4515  225.327    3.670    3.221   34.822   27.677    0.255    0.813 
 4516  225.500    3.670    3.221   34.821   27.677    0.301    0.813 
 4518  225.847    3.674    3.221   34.821   27.677    0.324    0.810 
 4520  226.021    3.676    3.222   34.821   27.677    0.278    0.810 
 4521  226.194    3.676    3.222   34.821   27.677    0.255    0.810 
 4522  226.368    3.676    3.222   34.821   27.677    0.278    0.810 
 4523  226.541    3.676    3.222   34.821   27.677    0.278    0.810 
 4524  226.715    3.676    3.222   34.821   27.677    0.255    0.810 
 4525  226.888    3.677    3.222   34.821   27.677    0.278    0.810 
 4527  227.062    3.678    3.222   34.821   27.677    0.278    0.810 
 4528  227.235    3.678    3.222   34.821   27.677    0.278    0.810 
 4529  227.409    3.678    3.222   34.821   27.677    0.278    0.810 
 4530  227.582    3.678    3.222   34.821   27.677    0.278    0.810 
 4531  227.756    3.678    3.222   34.821   27.677    0.301    0.807 
 4532  227.929    3.678    3.222   34.821   27.677    0.278    0.807 
 4534  228.103    3.678    3.222   34.821   27.677    0.301    0.807 
 4535  228.276    3.678    3.222   34.821   27.677    0.324    0.807 
 4536  228.450    3.678    3.222   34.821   27.677    0.324    0.807 
 4537  228.623    3.678    3.222   34.821   27.677    0.324    0.807 
 4540  228.797    3.678    3.222   34.821   27.677    0.324    0.807 
 4541  228.970    3.678    3.222   34.821   27.677    0.324    0.807 
 4543  229.143    3.678    3.222   34.820   27.677    0.324    0.807 
 4544  229.317    3.678    3.222   34.820   27.676    0.324    0.807 
 4546  229.490    3.678    3.222   34.820   27.676    0.348    0.807 
 4549  229.664    3.678    3.222   34.820   27.676    0.348    0.807 
 4550  229.837    3.678    3.222   34.820   27.676    0.348    0.807 
 4552  230.011    3.678    3.222   34.820   27.676    0.348    0.810 
 4554  230.184    3.678    3.222   34.820   27.676    0.348    0.810 
 4556  230.358    3.678    3.222   34.820   27.676    0.348    0.810 
 4558  230.531    3.679    3.222   34.820   27.676    0.348    0.810 
 4561  230.705    3.679    3.222   34.820   27.676    0.348    0.813 
 4563  230.878    3.679    3.222   34.820   27.676    0.348    0.813 
 4566  231.052    3.679    3.222   34.820   27.676    0.301    0.813 
 4568  231.225    3.679    3.222   34.820   27.676    0.301    0.810 
 4569  231.399    3.679    3.222   34.820   27.676    0.301    0.810 
 4572  231.572    3.680    3.222   34.820   27.676    0.278    0.813 
 4573  231.746    3.681    3.223   34.820   27.676    0.278    0.813 
 4575  231.919    3.682    3.223   34.820   27.676    0.278    0.813 
 4577  232.266    3.685    3.223   34.821   27.676    0.278    0.813 
 4579  232.440    3.686    3.223   34.821   27.676    0.278    0.813 
 4581  232.613    3.687    3.223   34.821   27.676    0.278    0.813 
 4582  232.787    3.687    3.223   34.822   27.677    0.278    0.813 
 4584  232.960    3.687    3.223   34.823   27.678    0.324    0.813 
 4585  233.134    3.688    3.223   34.827   27.680    0.324    0.813 
 4586  233.307    3.688    3.223   34.827   27.680    0.324    0.813 
 4588  233.481    3.689    3.224   34.827   27.680    0.324    0.813 
 4589  233.654    3.690    3.224   34.827   27.680    0.324    0.813 
 4590  233.827    3.690    3.224   34.827   27.680    0.348    0.813 
 4592  234.001    3.690    3.224   34.826   27.680    0.371    0.813 
 4594  234.174    3.690    3.224   34.826   27.680    0.371    0.813 
 4595  234.348    3.690    3.224   34.826   27.680    0.371    0.810 
 4597  234.521    3.690    3.224   34.826   27.680    0.348    0.810 
 4598  234.695    3.690    3.224   34.826   27.680    0.348    0.810 
 4600  234.868    3.691    3.224   34.826   27.680    0.348    0.810 
 4602  235.042    3.691    3.224   34.826   27.680    0.348    0.810 
 4603  235.215    3.692    3.224   34.826   27.680    0.348    0.807 
 4606  235.389    3.692    3.224   34.826   27.680    0.324    0.807 
 4608  235.562    3.693    3.224   34.825   27.678    0.324    0.807 
 4612  235.736    3.695    3.224   34.823   27.677    0.324    0.807 
 4614  235.909    3.695    3.224   34.823   27.677    0.324    0.807 
 4617  236.083    3.695    3.224   34.822   27.676    0.301    0.807 
 4619  236.256    3.695    3.224   34.822   27.676    0.301    0.807 
 4620  236.430    3.695    3.224   34.822   27.676    0.301    0.807 
 4622  236.603    3.695    3.224   34.822   27.676    0.301    0.807 
 4624  236.777    3.695    3.224   34.822   27.676    0.301    0.807 
 4626  236.950    3.695    3.224   34.822   27.676    0.301    0.807 
 4627  237.124    3.695    3.224   34.822   27.676    0.301    0.807 
 4628  237.297    3.696    3.224   34.822   27.676    0.301    0.807 
 4630  237.471    3.696    3.224   34.822   27.676    0.301    0.810 
 4631  237.644    3.696    3.224   34.822   27.676    0.301    0.810 
 4632  237.817    3.696    3.224   34.822   27.676    0.301    0.810 
 4633  237.991    3.696    3.224   34.822   27.676    0.301    0.810 
 4635  238.338    3.696    3.224   34.822   27.676    0.301    0.810 
 4637  238.511    3.696    3.225   34.830   27.682    0.301    0.810 
 4638  238.685    3.696    3.225   34.830   27.682    0.301    0.810 
 4639  238.858    3.696    3.225   34.830   27.682    0.301    0.810 
 4640  239.032    3.696    3.225   34.830   27.682    0.324    0.810 
 4642  239.205    3.696    3.225   34.830   27.682    0.301    0.810 
 4643  239.379    3.696    3.225   34.830   27.682    0.324    0.810 
 4644  239.552    3.696    3.225   34.830   27.682    0.324    0.810 
 4645  239.726    3.696    3.225   34.830   27.682    0.348    0.810 
 4647  239.899    3.697    3.225   34.830   27.682    0.324    0.810 
 4648  240.073    3.697    3.225   34.830   27.682    0.324    0.810 
 4649  240.246    3.697    3.225   34.830   27.682    0.348    0.810 
 4651  240.420    3.697    3.225   34.830   27.682    0.348    0.810 
 4653  240.767    3.697    3.225   34.830   27.682    0.301    0.807 
 4655  240.940    3.697    3.225   34.830   27.682    0.301    0.807 
 4657  241.113    3.697    3.225   34.830   27.682    0.301    0.807 
 4658  241.287    3.697    3.225   34.830   27.682    0.301    0.807 
 4660  241.460    3.697    3.225   34.830   27.682    0.301    0.807 
 4662  241.634    3.697    3.225   34.830   27.682    0.278    0.807 
 4663  241.807    3.697    3.225   34.830   27.682    0.278    0.807 
 4665  241.981    3.697    3.225   34.830   27.682    0.255    0.807 
 4667  242.154    3.697    3.225   34.830   27.682    0.255    0.807 
 4669  242.328    3.697    3.225   34.829   27.682    0.278    0.807 
 4671  242.501    3.697    3.225   34.829   27.682    0.278    0.807 
 4674  242.675    3.697    3.225   34.829   27.682    0.301    0.807 
 4676  242.848    3.696    3.225   34.829   27.682    0.301    0.810 
 4678  243.022    3.696    3.225   34.829   27.682    0.278    0.810 
 4681  243.195    3.695    3.225   34.829   27.682    0.301    0.810 
 4683  243.369    3.695    3.225   34.829   27.682    0.278    0.807 
 4686  243.542    3.694    3.225   34.829   27.682    0.301    0.810 
 4688  243.716    3.693    3.225   34.829   27.682    0.301    0.810 
 4689  243.889    3.690    3.224   34.828   27.681    0.301    0.810 
 4690  244.063    3.690    3.224   34.828   27.681    0.301    0.810 
 4691  244.236    3.690    3.224   34.828   27.681    0.278    0.810 
 4694  244.409    3.686    3.224   34.828   27.681    0.278    0.804 
 4695  244.583    3.686    3.224   34.828   27.681    0.278    0.804 
 4696  244.756    3.686    3.224   34.827   27.681    0.278    0.804 
 4697  244.930    3.686    3.224   34.827   27.681    0.278    0.804 
 4699  245.277    3.686    3.224   34.827   27.681    0.278    0.804 
 4700  245.450    3.686    3.224   34.827   27.681    0.278    0.804 
 4702  245.624    3.686    3.224   34.827   27.681    0.278    0.804 
 4703  245.797    3.685    3.224   34.827   27.681    0.278    0.804 
 4705  245.971    3.685    3.224   34.827   27.681    0.278    0.804 
 4706  246.144    3.685    3.224   34.827   27.681    0.278    0.804 
 4707  246.318    3.685    3.224   34.827   27.681    0.278    0.804 
 4709  246.491    3.685    3.224   34.827   27.681    0.255    0.804 
 4711  246.665    3.685    3.224   34.827   27.681    0.255    0.804 
 4712  246.838    3.685    3.224   34.827   27.681    0.278    0.804 
 4713  247.012    3.685    3.224   34.827   27.681    0.255    0.804 
 4715  247.185    3.685    3.224   34.827   27.681    0.255    0.807 
 4717  247.358    3.685    3.224   34.827   27.681    0.301    0.807 
 4719  247.532    3.685    3.224   34.827   27.681    0.278    0.807 
 4721  247.705    3.685    3.224   34.827   27.681    0.278    0.807 
 4722  247.879    3.685    3.224   34.827   27.681    0.278    0.807 
 4725  248.052    3.685    3.224   34.827   27.681    0.278    0.807 
 4727  248.226    3.685    3.224   34.827   27.681    0.278    0.807 
 4730  248.399    3.685    3.224   34.826   27.681    0.301    0.807 
 4732  248.573    3.686    3.224   34.825   27.680    0.301    0.807 
 4733  248.746    3.686    3.224   34.825   27.680    0.278    0.807 
 4735  248.920    3.686    3.224   34.825   27.680    0.301    0.807 
 4737  249.093    3.686    3.224   34.825   27.680    0.278    0.807 
 4739  249.267    3.686    3.224   34.825   27.680    0.301    0.807 
 4740  249.440    3.686    3.224   34.825   27.680    0.301    0.807 
 4742  249.614    3.686    3.224   34.825   27.680    0.301    0.807 
 4743  249.787    3.686    3.224   34.825   27.680    0.301    0.807 
 4745  249.960    3.686    3.224   34.825   27.680    0.301    0.807 
 4746  250.134    3.687    3.224   34.825   27.680    0.301    0.807 
 4747  250.307    3.687    3.224   34.825   27.680    0.301    0.807 
 4749  250.481    3.691    3.225   34.830   27.683    0.301    0.807 
 4750  250.654    3.691    3.225   34.830   27.683    0.301    0.807 
 4751  250.828    3.691    3.225   34.830   27.683    0.301    0.807 
 4752  251.001    3.691    3.225   34.830   27.683    0.278    0.807 
 4754  251.175    3.691    3.225   34.830   27.683    0.278    0.807 
 4755  251.348    3.691    3.225   34.830   27.683    0.278    0.807 
 4757  251.695    3.691    3.225   34.830   27.683    0.278    0.807 
 4759  251.869    3.691    3.225   34.830   27.683    0.278    0.807 
 4760  252.042    3.691    3.225   34.830   27.683    0.278    0.807 
 4761  252.216    3.691    3.225   34.830   27.683    0.278    0.807 
 4763  252.389    3.691    3.225   34.830   27.683    0.278    0.807 
 4764  252.562    3.691    3.225   34.830   27.683    0.278    0.807 
 4766  252.736    3.688    3.225   34.830   27.683    0.278    0.807 
 4767  252.909    3.688    3.225   34.830   27.683    0.278    0.807 
 4769  253.083    3.686    3.224   34.825   27.679    0.278    0.807 
 4771  253.256    3.684    3.224   34.825   27.679    0.278    0.807 
 4773  253.430    3.684    3.224   34.825   27.679    0.278    0.807 
 4775  253.603    3.684    3.224   34.825   27.679    0.278    0.807 
 4777  253.777    3.684    3.224   34.825   27.679    0.278    0.807 
 4779  253.950    3.684    3.224   34.825   27.679    0.278    0.807 
 4781  254.124    3.684    3.224   34.825   27.679    0.278    0.807 
 4783  254.297    3.684    3.224   34.825   27.679    0.278    0.807 
 4785  254.471    3.684    3.224   34.825   27.679    0.278    0.804 
 4788  254.644    3.684    3.224   34.825   27.679    0.278    0.801 
 4789  254.818    3.685    3.224   34.825   27.679    0.278    0.801 
 4792  254.991    3.686    3.224   34.825   27.679    0.278    0.798 
 4794  255.164    3.687    3.225   34.825   27.679    0.278    0.798 
 4795  255.338    3.687    3.225   34.825   27.679    0.278    0.798 
 4796  255.511    3.687    3.225   34.824   27.679    0.301    0.798 
 4798  255.685    3.688    3.225   34.824   27.679    0.301    0.798 
 4800  255.858    3.688    3.225   34.824   27.679    0.278    0.798 
 4801  256.032    3.688    3.225   34.824   27.679    0.278    0.795 
 4803  256.205    3.690    3.225   34.824   27.679    0.301    0.795 
 4804  256.379    3.691    3.225   34.824   27.679    0.301    0.798 
 4805  256.552    3.691    3.225   34.828   27.680    0.301    0.798 
 4807  256.726    3.694    3.225   34.828   27.680    0.301    0.801 
 4808  256.899    3.694    3.225   34.829   27.680    0.301    0.801 
 4809  257.073    3.694    3.225   34.829   27.680    0.301    0.810 
 4811  257.246    3.694    3.225   34.829   27.680    0.301    0.825 
 4812  257.419    3.694    3.225   34.829   27.680    0.301    0.825 
 4813  257.593    3.694    3.225   34.828   27.680    0.301    0.825 
 4815  257.766    3.694    3.225   34.828   27.680    0.324    0.825 
 4817  257.940    3.695    3.225   34.827   27.680    0.324    0.825 
 4818  258.113    3.695    3.226   34.827   27.680    0.324    0.825 
 4820  258.287    3.695    3.226   34.827   27.680    0.301    0.825 
 4822  258.460    3.695    3.226   34.827   27.680    0.301    0.825 
 4823  258.634    3.695    3.226   34.827   27.680    0.301    0.822 
 4825  258.807    3.695    3.226   34.827   27.680    0.301    0.810 
 4828  258.981    3.695    3.226   34.827   27.680    0.301    0.807 
 4831  259.154    3.700    3.226   34.827   27.680    0.324    0.807 
 4833  259.328    3.701    3.226   34.827   27.679    0.301    0.807 
 4835  259.501    3.701    3.226   34.827   27.679    0.278    0.807 
 4836  259.674    3.701    3.226   34.827   27.679    0.278    0.804 
 4839  259.848    3.701    3.226   34.827   27.679    0.278    0.795 
 4840  260.021    3.702    3.226   34.826   27.678    0.278    0.795 
 4842  260.195    3.702    3.226   34.826   27.678    0.278    0.795 
 4843  260.368    3.702    3.226   34.826   27.678    0.278    0.795 
 4846  260.542    3.702    3.226   34.826   27.678    0.278    0.795 
 4847  260.715    3.702    3.226   34.826   27.678    0.278    0.795 
 4848  260.889    3.702    3.226   34.825   27.678    0.301    0.795 
 4849  261.062    3.702    3.226   34.825   27.678    0.278    0.795 
 4850  261.236    3.702    3.226   34.825   27.678    0.278    0.795 
 4851  261.409    3.702    3.226   34.825   27.678    0.278    0.795 
 4853  261.582    3.702    3.226   34.825   27.678    0.278    0.795 
 4855  261.929    3.702    3.226   34.825   27.678    0.278    0.795 
 4857  262.103    3.702    3.226   34.825   27.678    0.278    0.795 
 4859  262.276    3.702    3.226   34.825   27.678    0.278    0.795 
 4860  262.450    3.702    3.226   34.825   27.678    0.278    0.795 
 4861  262.623    3.702    3.226   34.825   27.678    0.278    0.795 
 4864  262.797    3.702    3.226   34.825   27.678    0.301    0.795 
 4866  262.970    3.702    3.227   34.835   27.686    0.278    0.795 
 4869  263.317    3.702    3.227   34.836   27.686    0.278    0.798 
 4872  263.491    3.702    3.227   34.836   27.686    0.278    0.798 
 4875  263.664    3.702    3.227   34.836   27.686    0.301    0.798 
 4877  263.837    3.702    3.227   34.836   27.686    0.301    0.798 
 4879  264.011    3.702    3.227   34.836   27.686    0.301    0.798 
 4880  264.184    3.702    3.227   34.836   27.686    0.301    0.798 
 4882  264.358    3.702    3.227   34.836   27.686    0.301    0.798 
 4883  264.531    3.702    3.227   34.836   27.686    0.301    0.798 
 4885  264.705    3.701    3.227   34.836   27.686    0.301    0.798 
 4886  264.878    3.701    3.227   34.836   27.686    0.301    0.798 
 4888  265.052    3.701    3.227   34.835   27.686    0.301    0.801 
 4889  265.225    3.700    3.226   34.828   27.680    0.301    0.801 
 4890  265.399    3.700    3.226   34.828   27.680    0.301    0.801 
 4891  265.572    3.700    3.226   34.828   27.680    0.301    0.801 
 4893  265.745    3.700    3.226   34.828   27.680    0.301    0.801 
 4894  265.919    3.699    3.226   34.828   27.680    0.255    0.801 
 4895  266.092    3.699    3.226   34.828   27.680    0.255    0.801 
 4897  266.266    3.699    3.226   34.828   27.680    0.255    0.801 
 4898  266.439    3.698    3.226   34.828   27.680    0.255    0.801 
 4899  266.613    3.698    3.226   34.828   27.680    0.255    0.801 
 4901  266.786    3.697    3.226   34.828   27.680    0.255    0.801 
 4902  266.960    3.697    3.226   34.828   27.680    0.255    0.801 
 4904  267.133    3.696    3.226   34.828   27.680    0.255    0.798 
 4906  267.480    3.696    3.226   34.828   27.680    0.278    0.798 
 4909  267.653    3.696    3.226   34.828   27.680    0.278    0.795 
 4911  267.827    3.696    3.226   34.828   27.680    0.278    0.795 
 4913  268.000    3.696    3.226   34.828   27.680    0.278    0.795 
 4915  268.174    3.696    3.226   34.828   27.680    0.301    0.795 
 4918  268.347    3.696    3.226   34.828   27.680    0.301    0.792 
 4919  268.521    3.696    3.226   34.828   27.680    0.301    0.792 
 4922  268.694    3.696    3.226   34.828   27.680    0.301    0.795 
 4924  268.868    3.696    3.226   34.828   27.680    0.301    0.795 
 4925  269.041    3.696    3.226   34.827   27.680    0.301    0.795 
 4927  269.214    3.696    3.226   34.827   27.680    0.301    0.795 
 4929  269.388    3.696    3.226   34.827   27.680    0.278    0.792 
 4931  269.561    3.696    3.226   34.827   27.680    0.278    0.795 
 4932  269.735    3.696    3.226   34.827   27.680    0.278    0.795 
 4933  269.908    3.696    3.226   34.827   27.680    0.278    0.795 
 4935  270.082    3.696    3.226   34.827   27.680    0.255    0.795 
 4936  270.255    3.697    3.226   34.826   27.679    0.278    0.795 
 4937  270.429    3.697    3.226   34.826   27.679    0.278    0.795 
 4939  270.602    3.697    3.226   34.826   27.679    0.278    0.795 
 4940  270.776    3.697    3.226   34.826   27.679    0.278    0.795 
 4941  270.949    3.697    3.226   34.826   27.679    0.278    0.795 
 4943  271.122    3.697    3.226   34.826   27.679    0.278    0.795 
 4944  271.296    3.697    3.226   34.826   27.679    0.278    0.795 
 4945  271.469    3.697    3.226   34.826   27.679    0.278    0.795 
 4947  271.643    3.697    3.226   34.826   27.679    0.278    0.795 
 4948  271.816    3.697    3.226   34.826   27.679    0.278    0.795 
 4950  271.990    3.697    3.226   34.826   27.679    0.301    0.798 
 4951  272.163    3.697    3.226   34.826   27.679    0.324    0.798 
 4954  272.337    3.697    3.226   34.826   27.679    0.348    0.798 
 4956  272.510    3.697    3.227   34.836   27.687    0.348    0.798 
 4959  272.684    3.697    3.227   34.836   27.687    0.324    0.798 
 4961  272.857    3.697    3.227   34.836   27.687    0.324    0.798 
 4963  273.030    3.697    3.227   34.836   27.687    0.324    0.798 
 4966  273.204    3.697    3.227   34.836   27.687    0.301    0.798 
 4968  273.377    3.697    3.227   34.836   27.687    0.278    0.795 
 4969  273.551    3.697    3.227   34.836   27.687    0.278    0.795 
 4971  273.724    3.697    3.227   34.836   27.687    0.278    0.795 
 4972  273.898    3.697    3.227   34.836   27.687    0.278    0.795 
 4974  274.071    3.697    3.227   34.836   27.687    0.278    0.795 
 4975  274.245    3.697    3.227   34.836   27.687    0.278    0.795 
 4977  274.418    3.696    3.227   34.836   27.687    0.278    0.795 
 4979  274.591    3.696    3.227   34.836   27.687    0.278    0.795 
 4980  274.765    3.696    3.227   34.836   27.687    0.278    0.795 
 4981  274.938    3.696    3.227   34.836   27.687    0.301    0.798 
 4983  275.112    3.696    3.227   34.836   27.687    0.278    0.798 
 4984  275.285    3.696    3.227   34.836   27.687    0.278    0.798 
 4986  275.459    3.696    3.227   34.836   27.687    0.301    0.798 
 4988  275.632    3.696    3.227   34.836   27.687    0.301    0.804 
 4989  275.806    3.696    3.227   34.836   27.687    0.301    0.804 
 4991  275.979    3.696    3.227   34.836   27.687    0.324    0.801 
 4994  276.152    3.696    3.227   34.836   27.687    0.324    0.801 
 4995  276.326    3.696    3.227   34.835   27.687    0.324    0.801 
 4997  276.499    3.697    3.227   34.834   27.686    0.324    0.801 
 4999  276.673    3.697    3.227   34.834   27.686    0.324    0.810 
 5001  276.846    3.697    3.227   34.834   27.685    0.324    0.816 
 5003  277.020    3.698    3.227   34.833   27.684    0.324    0.816 
 5005  277.193    3.698    3.227   34.833   27.684    0.324    0.816 
 5007  277.367    3.698    3.227   34.833   27.684    0.324    0.810 
 5008  277.540    3.698    3.227   34.833   27.684    0.324    0.810 
 5010  277.713    3.699    3.227   34.832   27.683    0.324    0.813 
 5011  278.060    3.699    3.227   34.831   27.683    0.324    0.813 
 5013  278.234    3.699    3.227   34.831   27.683    0.324    0.813 
 5015  278.581    3.699    3.227   34.831   27.683    0.301    0.813 
 5017  278.754    3.699    3.227   34.831   27.683    0.301    0.813 
 5018  278.928    3.699    3.227   34.831   27.683    0.301    0.813 
 5019  279.101    3.700    3.227   34.830   27.682    0.301    0.810 
 5021  279.275    3.700    3.227   34.830   27.682    0.324    0.810 
 5022  279.448    3.700    3.227   34.830   27.682    0.324    0.804 
 5023  279.621    3.701    3.227   34.830   27.682    0.324    0.801 
 5025  279.795    3.701    3.227   34.830   27.682    0.324    0.798 
 5026  279.968    3.701    3.227   34.830   27.682    0.301    0.798 
 5028  280.142    3.702    3.227   34.830   27.682    0.324    0.795 
 5029  280.315    3.702    3.227   34.830   27.682    0.324    0.792 
 5031  280.489    3.702    3.227   34.830   27.682    0.324    0.789 
 5033  280.662    3.702    3.227   34.830   27.682    0.324    0.789 
 5035  280.836    3.702    3.227   34.830   27.682    0.324    0.789 
 5037  281.009    3.702    3.228   34.835   27.686    0.324    0.789 
 5039  281.182    3.702    3.228   34.835   27.686    0.301    0.789 
 5041  281.356    3.703    3.228   34.835   27.686    0.301    0.789 
 5044  281.529    3.703    3.228   34.835   27.686    0.301    0.792 
 5045  281.703    3.703    3.228   34.835   27.686    0.301    0.792 
 5047  281.876    3.703    3.228   34.835   27.686    0.301    0.795 
 5050  282.050    3.703    3.228   34.835   27.686    0.255    0.798 
 5051  282.223    3.703    3.228   34.835   27.686    0.255    0.798 
 5054  282.396    3.704    3.228   34.835   27.686    0.255    0.798 
 5056  282.570    3.704    3.228   34.835   27.686    0.255    0.798 
 5057  282.743    3.704    3.228   34.835   27.686    0.255    0.795 
 5059  282.917    3.704    3.228   34.835   27.686    0.278    0.795 
 5061  283.090    3.705    3.228   34.834   27.685    0.255    0.795 
 5062  283.264    3.705    3.228   34.834   27.685    0.278    0.795 
 5064  283.437    3.705    3.228   34.834   27.685    0.278    0.795 
 5066  283.611    3.705    3.228   34.834   27.685    0.278    0.795 
 5068  283.784    3.705    3.228   34.834   27.685    0.255    0.792 
 5069  283.957    3.705    3.228   34.834   27.685    0.255    0.792 
 5070  284.131    3.705    3.228   34.834   27.685    0.278    0.792 
 5073  284.304    3.705    3.228   34.834   27.685    0.301    0.792 
 5074  284.478    3.705    3.228   34.834   27.685    0.301    0.792 
 5077  284.651    3.705    3.228   34.834   27.685    0.324    0.792 
 5078  284.825    3.705    3.228   34.834   27.685    0.324    0.792 
 5080  284.998    3.705    3.228   34.834   27.685    0.324    0.792 
 5081  285.172    3.705    3.228   34.834   27.685    0.324    0.792 
 5083  285.345    3.704    3.228   34.834   27.685    0.324    0.792 
 5085  285.518    3.703    3.228   34.834   27.685    0.324    0.792 
 5087  285.692    3.703    3.228   34.835   27.685    0.324    0.792 
 5088  285.865    3.703    3.228   34.835   27.685    0.324    0.792 
 5089  286.039    3.703    3.228   34.835   27.685    0.324    0.792 
 5090  286.212    3.703    3.228   34.835   27.685    0.324    0.792 
 5092  286.386    3.703    3.228   34.835   27.685    0.324    0.795 
 5093  286.559    3.703    3.228   34.835   27.685    0.324    0.792 
 5095  286.732    3.702    3.228   34.835   27.685    0.324    0.792 
 5096  286.906    3.702    3.228   34.835   27.685    0.324    0.792 
 5098  287.079    3.701    3.228   34.835   27.685    0.324    0.792 
 5099  287.253    3.701    3.228   34.835   27.685    0.324    0.792 
 5100  287.426    3.701    3.228   34.835   27.685    0.324    0.795 
 5101  287.600    3.701    3.228   34.835   27.685    0.324    0.795 
 5102  287.773    3.701    3.228   34.835   27.685    0.301    0.795 
 5104  287.947    3.701    3.228   34.835   27.685    0.301    0.795 
 5105  288.120    3.702    3.228   34.834   27.685    0.301    0.795 
 5107  288.467    3.702    3.228   34.834   27.685    0.301    0.795 
 5110  288.814    3.702    3.228   34.834   27.685    0.301    0.795 
 5112  288.987    3.702    3.228   34.834   27.685    0.301    0.795 
 5113  289.161    3.702    3.228   34.834   27.685    0.301    0.798 
 5114  289.334    3.702    3.228   34.834   27.685    0.301    0.801 
 5117  289.508    3.702    3.228   34.834   27.685    0.301    0.816 
 5119  289.681    3.702    3.228   34.834   27.685    0.301    0.828 
 5120  289.854    3.702    3.228   34.834   27.685    0.301    0.831 
 5123  290.028    3.702    3.228   34.834   27.685    0.324    0.831 
 5124  290.201    3.702    3.228   34.834   27.685    0.301    0.831 
 5125  290.375    3.702    3.228   34.834   27.684    0.324    0.831 
 5129  290.548    3.703    3.228   34.834   27.684    0.301    0.831 
 5131  290.722    3.703    3.228   34.833   27.684    0.301    0.828 
 5134  290.895    3.703    3.228   34.833   27.684    0.301    0.825 
 5137  291.068    3.703    3.228   34.833   27.684    0.301    0.813 
 5139  291.242    3.702    3.228   34.833   27.684    0.301    0.813 
 5141  291.415    3.702    3.228   34.833   27.684    0.278    0.810 
 5142  291.589    3.702    3.228   34.833   27.684    0.278    0.804 
 5145  291.762    3.702    3.228   34.833   27.684    0.301    0.786 
 5146  291.936    3.701    3.228   34.833   27.684    0.278    0.786 
 5148  292.109    3.701    3.228   34.833   27.684    0.278    0.786 
 5150  292.282    3.701    3.228   34.833   27.685    0.278    0.786 
 5151  292.456    3.701    3.228   34.834   27.685    0.278    0.786 
 5152  292.629    3.701    3.228   34.834   27.685    0.255    0.786 
 5154  292.803    3.700    3.228   34.834   27.685    0.278    0.786 
 5155  292.976    3.700    3.228   34.834   27.685    0.278    0.786 
 5157  293.150    3.698    3.228   34.835   27.686    0.278    0.789 
 5158  293.323    3.698    3.228   34.835   27.686    0.278    0.789 
 5159  293.497    3.698    3.228   34.835   27.686    0.278    0.789 
 5160  293.670    3.698    3.228   34.835   27.686    0.255    0.789 
 5161  293.843    3.698    3.228   34.835   27.686    0.278    0.789 
 5163  294.017    3.698    3.228   34.835   27.686    0.278    0.789 
 5164  294.190    3.698    3.228   34.835   27.686    0.278    0.789 
 5166  294.537    3.698    3.228   34.835   27.686    0.278    0.789 
 5168  294.711    3.698    3.228   34.835   27.686    0.278    0.789 
 5169  294.884    3.698    3.228   34.835   27.686    0.278    0.789 
 5170  295.057    3.698    3.228   34.835   27.686    0.278    0.789 
 5172  295.231    3.699    3.228   34.834   27.685    0.278    0.786 
 5173  295.404    3.699    3.228   34.834   27.685    0.278    0.786 
 5175  295.578    3.699    3.228   34.834   27.685    0.301    0.786 
 5176  295.751    3.700    3.228   34.833   27.684    0.278    0.786 
 5178  295.925    3.701    3.228   34.831   27.683    0.301    0.786 
 5179  296.098    3.701    3.228   34.831   27.683    0.278    0.786 
 5182  296.271    3.701    3.228   34.831   27.683    0.301    0.789 
 5185  296.445    3.702    3.228   34.831   27.683    0.278    0.789 
 5186  296.618    3.702    3.228   34.831   27.683    0.278    0.789 
 5188  296.792    3.702    3.228   34.831   27.683    0.301    0.792 
 5192  296.965    3.702    3.228   34.831   27.683    0.301    0.792 
 5194  297.139    3.702    3.228   34.831   27.683    0.301    0.795 
 5195  297.312    3.703    3.228   34.831   27.683    0.301    0.795 
 5198  297.485    3.703    3.228   34.831   27.683    0.301    0.795 
 5200  297.659    3.703    3.228   34.831   27.683    0.324    0.795 
 5202  297.832    3.704    3.228   34.831   27.683    0.301    0.795 
 5204  298.006    3.704    3.229   34.836   27.686    0.301    0.792 
 5205  298.179    3.704    3.229   34.836   27.686    0.301    0.792 
 5206  298.353    3.704    3.229   34.836   27.686    0.301    0.792 
 5208  298.526    3.704    3.229   34.836   27.686    0.278    0.792 
 5209  298.699    3.706    3.229   34.836   27.686    0.255    0.792 
 5211  298.873    3.706    3.229   34.836   27.686    0.255    0.792 
 5212  299.046    3.706    3.229   34.836   27.686    0.278    0.792 
 5213  299.220    3.706    3.229   34.836   27.686    0.278    0.789 
 5215  299.393    3.706    3.229   34.836   27.686    0.255    0.789 
 5217  299.740    3.706    3.229   34.836   27.686    0.255    0.789 
 5219  299.913    3.706    3.229   34.836   27.686    0.255    0.789 
 5220  300.260    3.706    3.229   34.836   27.686    0.255    0.789 
 5222  300.434    3.707    3.229   34.836   27.686    0.255    0.789 
 5224  300.607    3.706    3.229   34.835   27.686    0.255    0.789 
 5225  300.781    3.706    3.229   34.835   27.686    0.255    0.789 
 5227  300.954    3.706    3.229   34.835   27.685    0.278    0.807 
 5228  301.127    3.706    3.229   34.835   27.685    0.301    0.819 
 5231  301.301    3.706    3.229   34.835   27.685    0.278    0.841 
 5232  301.474    3.706    3.229   34.835   27.685    0.301    0.841 
 5234  301.648    3.706    3.229   34.835   27.685    0.301    0.841 
 5236  301.821    3.706    3.229   34.835   27.685    0.278    0.841 
 5238  301.995    3.706    3.229   34.835   27.685    0.278    0.841 
 5240  302.168    3.706    3.229   34.835   27.685    0.301    0.841 
 5243  302.341    3.706    3.229   34.835   27.685    0.301    0.819 
 5244  302.515    3.706    3.229   34.835   27.685    0.301    0.816 
 5247  302.688    3.706    3.229   34.834   27.685    0.278    0.813 
 5248  302.862    3.706    3.229   34.834   27.685    0.278    0.810 
 5250  303.035    3.706    3.229   34.834   27.685    0.278    0.810 
 5252  303.209    3.706    3.229   34.834   27.685    0.278    0.807 
 5253  303.382    3.706    3.229   34.834   27.685    0.255    0.807 
 5255  303.555    3.706    3.229   34.834   27.685    0.255    0.807 
 5256  303.729    3.706    3.229   34.834   27.685    0.255    0.807 
 5258  303.902    3.706    3.229   34.834   27.685    0.278    0.807 
 5259  304.076    3.706    3.229   34.834   27.685    0.278    0.807 
 5260  304.249    3.706    3.229   34.834   27.685    0.278    0.807 
 5261  304.423    3.706    3.229   34.834   27.685    0.278    0.807 
 5263  304.596    3.706    3.229   34.834   27.685    0.278    0.804 
 5265  304.769    3.706    3.229   34.834   27.685    0.255    0.801 
 5266  304.943    3.706    3.229   34.834   27.685    0.255    0.795 
 5268  305.116    3.705    3.229   34.834   27.685    0.255    0.786 
 5269  305.290    3.704    3.229   34.834   27.685    0.255    0.786 
 5271  305.463    3.703    3.229   34.834   27.685    0.278    0.786 
 5272  305.637    3.703    3.229   34.834   27.685    0.278    0.784 
 5273  305.810    3.703    3.229   34.834   27.685    0.278    0.784 
 5275  305.983    3.703    3.229   34.834   27.685    0.278    0.784 
 5277  306.157    3.703    3.229   34.834   27.685    0.278    0.784 
 5278  306.330    3.703    3.229   34.834   27.685    0.278    0.784 
 5280  306.504    3.703    3.229   34.834   27.685    0.278    0.784 
 5282  306.677    3.703    3.229   34.834   27.685    0.278    0.784 
 5283  306.851    3.704    3.229   34.834   27.685    0.278    0.786 
 5286  307.024    3.704    3.229   34.834   27.685    0.278    0.804 
 5287  307.197    3.704    3.229   34.834   27.685    0.278    0.807 
 5289  307.371    3.704    3.229   34.834   27.685    0.301    0.822 
 5290  307.544    3.704    3.229   34.834   27.685    0.301    0.822 
 5292  307.718    3.704    3.229   34.834   27.685    0.301    0.822 
 5295  307.891    3.704    3.229   34.834   27.684    0.278    0.822 
 5296  308.064    3.705    3.229   34.833   27.683    0.278    0.822 
 5298  308.238    3.705    3.229   34.833   27.683    0.278    0.822 
 5299  308.411    3.705    3.229   34.832   27.683    0.278    0.822 
 5301  308.585    3.705    3.229   34.832   27.683    0.278    0.813 
 5304  308.758    3.705    3.229   34.832   27.683    0.301    0.801 
 5305  308.932    3.705    3.229   34.832   27.683    0.278    0.801 
 5307  309.105    3.706    3.229   34.831   27.682    0.278    0.801 
 5309  309.278    3.706    3.229   34.831   27.682    0.278    0.798 
 5311  309.452    3.706    3.229   34.831   27.682    0.278    0.798 
 5312  309.625    3.706    3.229   34.831   27.682    0.278    0.795 
 5315  309.799    3.706    3.229   34.831   27.682    0.278    0.792 
 5316  309.972    3.706    3.229   34.831   27.682    0.278    0.792 
 5317  310.146    3.706    3.229   34.831   27.682    0.278    0.789 
 5319  310.319    3.706    3.229   34.831   27.682    0.301    0.789 
 5321  310.492    3.706    3.229   34.831   27.682    0.278    0.786 
 5323  310.666    3.706    3.229   34.831   27.682    0.255    0.781 
 5324  310.839    3.706    3.229   34.831   27.682    0.255    0.781 
 5326  311.013    3.706    3.230   34.841   27.690    0.255    0.781 
 5327  311.186    3.706    3.230   34.841   27.690    0.255    0.781 
 5328  311.359    3.706    3.230   34.841   27.690    0.255    0.781 
 5330  311.533    3.706    3.230   34.841   27.690    0.278    0.781 
 5332  311.706    3.706    3.230   34.841   27.690    0.255    0.781 
 5333  311.880    3.706    3.230   34.841   27.690    0.255    0.781 
 5335  312.053    3.706    3.230   34.841   27.690    0.255    0.781 
 5336  312.227    3.706    3.230   34.841   27.690    0.255    0.781 
 5337  312.400    3.706    3.230   34.841   27.690    0.255    0.781 
 5339  312.573    3.706    3.230   34.841   27.690    0.231    0.819 
 5340  312.747    3.706    3.230   34.841   27.690    0.208    0.819 
 5341  312.920    3.706    3.230   34.841   27.690    0.208    0.819 
 5343  313.094    3.706    3.230   34.841   27.690    0.208    0.819 
 5344  313.267    3.706    3.230   34.841   27.690    0.208    0.819 
 5346  313.441    3.706    3.230   34.841   27.690    0.208    0.819 
 5348  313.614    3.706    3.230   34.840   27.690    0.208    0.819 
 5349  313.787    3.706    3.230   34.840   27.690    0.208    0.819 
 5351  313.961    3.706    3.230   34.840   27.689    0.208    0.813 
 5352  314.134    3.706    3.230   34.840   27.689    0.208    0.810 
 5354  314.308    3.706    3.230   34.840   27.689    0.208    0.810 
 5356  314.481    3.706    3.230   34.840   27.689    0.208    0.807 
 5358  314.654    3.706    3.230   34.840   27.689    0.231    0.807 
 5360  314.828    3.706    3.230   34.840   27.689    0.231    0.804 
 5362  315.001    3.706    3.230   34.840   27.689    0.231    0.801 
 5363  315.175    3.706    3.230   34.840   27.689    0.231    0.801 
 5365  315.348    3.706    3.230   34.840   27.689    0.231    0.795 
 5367  315.522    3.706    3.230   34.840   27.689    0.231    0.792 
 5368  315.695    3.706    3.230   34.840   27.689    0.231    0.792 
 5371  316.042    3.706    3.230   34.840   27.689    0.255    0.786 
 5374  316.389    3.705    3.230   34.840   27.689    0.278    0.781 
 5376  316.562    3.705    3.230   34.840   27.689    0.255    0.781 
 5378  316.735    3.705    3.230   34.840   27.689    0.278    0.781 
 5380  316.909    3.704    3.230   34.840   27.689    0.278    0.784 
 5381  317.082    3.704    3.230   34.840   27.689    0.278    0.784 
 5382  317.256    3.704    3.230   34.840   27.689    0.278    0.784 
 5384  317.429    3.704    3.230   34.840   27.689    0.255    0.781 
 5385  317.603    3.704    3.230   34.840   27.689    0.255    0.781 
 5387  317.776    3.704    3.230   34.840   27.689    0.255    0.781 
 5388  317.949    3.704    3.230   34.840   27.689    0.278    0.781 
 5390  318.123    3.704    3.230   34.840   27.689    0.278    0.784 
 5391  318.296    3.704    3.230   34.840   27.689    0.278    0.784 
 5393  318.470    3.704    3.230   34.840   27.689    0.255    0.786 
 5394  318.643    3.704    3.230   34.840   27.689    0.255    0.786 
 5395  318.816    3.704    3.230   34.840   27.689    0.255    0.786 
 5397  318.990    3.704    3.230   34.840   27.689    0.255    0.789 
 5399  319.163    3.704    3.230   34.840   27.689    0.255    0.792 
 5401  319.337    3.704    3.230   34.840   27.689    0.255    0.798 
 5403  319.510    3.704    3.230   34.839   27.689    0.278    0.798 
 5405  319.683    3.704    3.230   34.839   27.689    0.278    0.801 
 5408  319.857    3.704    3.230   34.839   27.689    0.278    0.807 
 5411  320.030    3.704    3.230   34.839   27.689    0.278    0.810 
 5412  320.204    3.704    3.230   34.839   27.689    0.278    0.810 
 5416  320.551    3.704    3.230   34.839   27.688    0.301    0.804 
 5419  320.724    3.704    3.230   34.839   27.688    0.301    0.801 
 5421  320.897    3.704    3.230   34.839   27.688    0.301    0.798 
 5422  321.071    3.704    3.230   34.839   27.688    0.301    0.798 
 5424  321.244    3.704    3.230   34.838   27.688    0.301    0.798 
 5425  321.418    3.704    3.230   34.838   27.688    0.301    0.798 
 5426  321.591    3.704    3.230   34.838   27.688    0.301    0.798 
 5428  321.938    3.704    3.230   34.838   27.688    0.301    0.795 
 5430  322.111    3.704    3.230   34.838   27.688    0.301    0.789 
 5431  322.285    3.704    3.230   34.838   27.688    0.301    0.789 
 5433  322.631    3.705    3.230   34.837   27.687    0.301    0.789 
 5435  322.805    3.705    3.230   34.837   27.687    0.301    0.784 
 5436  322.978    3.705    3.230   34.837   27.687    0.301    0.784 
 5438  323.325    3.705    3.230   34.837   27.687    0.301    0.784 
 5440  323.499    3.706    3.230   34.837   27.687    0.324    0.784 
 5441  323.672    3.706    3.230   34.837   27.687    0.324    0.784 
 5443  323.845    3.706    3.230   34.837   27.687    0.324    0.786 
 5445  324.019    3.706    3.230   34.837   27.687    0.301    0.786 
 5448  324.192    3.706    3.230   34.837   27.687    0.278    0.786 
 5450  324.366    3.706    3.230   34.837   27.687    0.301    0.810 
 5453  324.539    3.708    3.230   34.837   27.687    0.278    0.822 
 5454  324.712    3.708    3.230   34.837   27.687    0.278    0.822 
 5457  324.886    3.709    3.231   34.841   27.690    0.255    0.822 
 5459  325.059    3.709    3.231   34.841   27.690    0.255    0.822 
 5461  325.233    3.709    3.231   34.841   27.690    0.255    0.822 
 5462  325.406    3.709    3.231   34.841   27.690    0.255    0.822 
 5464  325.579    3.709    3.231   34.841   27.690    0.255    0.819 
 5465  325.753    3.710    3.231   34.841   27.690    0.255    0.816 
 5467  325.926    3.710    3.231   34.841   27.690    0.255    0.816 
 5468  326.100    3.710    3.231   34.841   27.690    0.255    0.816 
 5470  326.273    3.710    3.231   34.841   27.690    0.255    0.813 
 5471  326.447    3.710    3.231   34.841   27.690    0.255    0.813 
 5473  326.793    3.710    3.231   34.841   27.690    0.255    0.813 
 5475  326.967    3.710    3.231   34.841   27.690    0.255    0.810 
 5476  327.140    3.710    3.231   34.841   27.690    0.255    0.810 
 5478  327.314    3.710    3.231   34.841   27.689    0.255    0.807 
 5479  327.487    3.710    3.231   34.841   27.689    0.255    0.804 
 5481  327.660    3.710    3.231   34.841   27.689    0.255    0.795 
 5483  327.834    3.710    3.231   34.841   27.689    0.255    0.795 
 5484  328.007    3.710    3.231   34.840   27.689    0.255    0.795 
 5486  328.181    3.710    3.231   34.840   27.689    0.255    0.795 
 5487  328.354    3.710    3.231   34.840   27.689    0.255    0.795 
 5489  328.527    3.710    3.231   34.840   27.689    0.278    0.795 
 5490  328.701    3.710    3.231   34.840   27.689    0.278    0.795 
 5493  328.874    3.710    3.231   34.840   27.689    0.324    0.795 
 5495  329.048    3.710    3.231   34.840   27.689    0.255    0.792 
 5497  329.221    3.710    3.231   34.840   27.689    0.324    0.795 
 5500  329.394    3.710    3.231   34.840   27.689    0.301    0.795 
 5502  329.568    3.710    3.231   34.840   27.688    0.278    0.792 
 5503  329.741    3.710    3.231   34.839   27.688    0.278    0.792 
 5506  329.915    3.710    3.231   34.839   27.688    0.301    0.784 
 5507  330.088    3.710    3.231   34.839   27.688    0.301    0.784 
 5510  330.261    3.710    3.231   34.839   27.688    0.301    0.772 
 5512  330.435    3.710    3.231   34.839   27.688    0.301    0.772 
 5514  330.608    3.710    3.231   34.839   27.688    0.301    0.772 
 5517  330.782    3.710    3.231   34.839   27.688    0.301    0.772 
 5518  330.955    3.710    3.231   34.839   27.688    0.301    0.772 
 5520  331.128    3.710    3.231   34.839   27.688    0.278    0.772 
 5523  331.475    3.710    3.231   34.839   27.688    0.301    0.775 
 5526  331.649    3.710    3.231   34.838   27.688    0.255    0.784 
 5528  331.822    3.710    3.231   34.838   27.688    0.255    0.789 
 5529  331.996    3.710    3.231   34.838   27.687    0.255    0.789 
 5532  332.342    3.711    3.231   34.837   27.686    0.255    0.792 
 5534  332.516    3.711    3.231   34.837   27.686    0.255    0.795 
 5535  332.689    3.711    3.231   34.837   27.686    0.255    0.795 
 5537  332.863    3.712    3.231   34.836   27.685    0.255    0.795 
 5538  333.036    3.712    3.231   34.836   27.685    0.255    0.795 
 5539  333.209    3.712    3.231   34.835   27.685    0.255    0.795 
 5540  333.383    3.712    3.231   34.835   27.685    0.255    0.795 
 5542  333.556    3.712    3.231   34.835   27.685    0.255    0.792 
 5543  333.730    3.712    3.231   34.835   27.685    0.255    0.792 
 5545  333.903    3.712    3.231   34.835   27.685    0.255    0.792 
 5546  334.076    3.712    3.231   34.835   27.685    0.255    0.792 
 5547  334.250    3.712    3.231   34.835   27.685    0.255    0.792 
 5548  334.423    3.712    3.231   34.835   27.684    0.278    0.792 
 5550  334.597    3.712    3.231   34.835   27.684    0.255    0.789 
 5551  334.770    3.712    3.231   34.835   27.684    0.255    0.789 
 5552  334.943    3.712    3.231   34.835   27.684    0.255    0.789 
 5554  335.117    3.712    3.231   34.835   27.684    0.255    0.789 
 5555  335.290    3.712    3.231   34.835   27.684    0.255    0.789 
 5556  335.464    3.712    3.231   34.835   27.684    0.255    0.789 
 5558  335.637    3.712    3.231   34.835   27.684    0.255    0.789 
 5559  335.810    3.712    3.231   34.835   27.684    0.255    0.789 
 5560  335.984    3.712    3.231   34.835   27.684    0.255    0.789 
 5562  336.157    3.713    3.231   34.835   27.684    0.255    0.789 
 5563  336.331    3.713    3.231   34.835   27.684    0.231    0.789 
 5565  336.504    3.713    3.231   34.835   27.684    0.231    0.792 
 5567  336.677    3.713    3.232   34.842   27.690    0.255    0.792 
 5569  336.851    3.713    3.232   34.842   27.690    0.255    0.789 
 5570  337.024    3.713    3.232   34.842   27.690    0.255    0.789 
 5572  337.198    3.713    3.232   34.842   27.690    0.278    0.789 
 5574  337.371    3.714    3.232   34.842   27.690    0.278    0.789 
 5577  337.544    3.714    3.232   34.842   27.690    0.278    0.792 
 5579  337.718    3.714    3.232   34.842   27.690    0.278    0.792 
 5581  337.891    3.714    3.232   34.842   27.690    0.278    0.792 
 5585  338.065    3.714    3.232   34.842   27.690    0.278    0.798 
 5588  338.238    3.714    3.232   34.842   27.690    0.278    0.801 
 5589  338.411    3.714    3.232   34.842   27.690    0.301    0.801 
 5592  338.585    3.714    3.232   34.842   27.690    0.324    0.801 
 5593  338.758    3.714    3.232   34.842   27.690    0.348    0.801 
 5596  338.932    3.714    3.232   34.842   27.690    0.324    0.801 
 5597  339.105    3.714    3.232   34.842   27.690    0.278    0.798 
 5599  339.278    3.716    3.232   34.842   27.690    0.278    0.792 
 5601  339.452    3.716    3.232   34.842   27.690    0.324    0.789 
 5603  339.625    3.718    3.232   34.842   27.690    0.324    0.786 
 5604  339.799    3.718    3.232   34.842   27.690    0.324    0.786 
 5606  339.972    3.719    3.232   34.842   27.690    0.301    0.786 
 5608  340.145    3.720    3.232   34.842   27.690    0.301    0.786 
 5609  340.319    3.720    3.232   34.842   27.690    0.301    0.786 
 5610  340.492    3.720    3.232   34.842   27.690    0.301    0.786 
 5612  340.666    3.720    3.232   34.842   27.690    0.255    0.789 
 5614  340.839    3.720    3.233   34.844   27.691    0.255    0.807 
 5615  341.012    3.720    3.233   34.844   27.691    0.301    0.807 
 5616  341.186    3.720    3.233   34.844   27.691    0.301    0.807 
 5618  341.359    3.720    3.233   34.844   27.691    0.301    0.810 
 5619  341.533    3.720    3.233   34.844   27.691    0.301    0.810 
 5621  341.706    3.721    3.233   34.844   27.691    0.301    0.813 
 5622  341.879    3.721    3.233   34.844   27.691    0.301    0.813 
 5624  342.053    3.721    3.233   34.844   27.691    0.301    0.813 
 5626  342.226    3.721    3.233   34.844   27.691    0.301    0.813 
 5627  342.400    3.721    3.233   34.844   27.691    0.301    0.813 
 5629  342.573    3.722    3.233   34.844   27.691    0.301    0.813 
 5630  342.746    3.723    3.233   34.843   27.690    0.301    0.810 
 5631  342.920    3.723    3.233   34.842   27.689    0.301    0.810 
 5632  343.093    3.723    3.233   34.842   27.689    0.301    0.810 
 5634  343.267    3.723    3.233   34.842   27.689    0.301    0.810 
 5635  343.440    3.723    3.233   34.842   27.689    0.324    0.810 
 5636  343.613    3.723    3.233   34.842   27.689    0.301    0.810 
 5638  343.787    3.723    3.233   34.842   27.689    0.301    0.807 
 5639  343.960    3.723    3.233   34.842   27.689    0.301    0.807 
 5640  344.133    3.723    3.233   34.842   27.689    0.301    0.807 
 5642  344.307    3.724    3.233   34.841   27.688    0.255    0.807 
 5643  344.480    3.724    3.233   34.841   27.688    0.255    0.807 
 5645  344.654    3.724    3.233   34.841   27.688    0.255    0.807 
 5647  344.827    3.724    3.233   34.841   27.688    0.255    0.807 
 5650  345.000    3.725    3.233   34.841   27.688    0.301    0.807 
 5652  345.174    3.725    3.233   34.841   27.688    0.255    0.807 
 5656  345.347    3.725    3.233   34.841   27.688    0.255    0.804 
 5661  345.521    3.725    3.233   34.841   27.688    0.278    0.801 
 5664  345.694    3.726    3.233   34.841   27.688    0.301    0.798 
 5667  345.867    3.726    3.233   34.841   27.688    0.278    0.795 
 5668  346.041    3.727    3.233   34.841   27.688    0.278    0.795 
 5671  346.214    3.727    3.233   34.841   27.688    0.278    0.795 
 5672  346.388    3.727    3.234   34.846   27.692    0.278    0.795 
 5673  346.561    3.727    3.234   34.846   27.692    0.278    0.795 
 5674  346.734    3.727    3.234   34.846   27.692    0.278    0.795 
 5675  346.908    3.727    3.234   34.846   27.692    0.278    0.795 
 5676  347.081    3.727    3.234   34.846   27.692    0.278    0.795 
 5677  347.255    3.728    3.234   34.846   27.692    0.278    0.795 
 5678  347.428    3.728    3.234   34.846   27.692    0.278    0.795 
 5679  347.601    3.728    3.234   34.846   27.692    0.255    0.795 
 5680  347.775    3.728    3.234   34.846   27.692    0.255    0.795 
 5681  347.948    3.728    3.234   34.846   27.692    0.255    0.795 
 5682  348.122    3.728    3.234   34.846   27.692    0.255    0.795 
 5683  348.295    3.728    3.234   34.846   27.692    0.255    0.795 
 5684  348.468    3.728    3.234   34.846   27.692    0.278    0.795 
 5685  348.815    3.728    3.234   34.846   27.692    0.278    0.795 
 5687  348.988    3.728    3.234   34.846   27.692    0.278    0.795 
 5688  349.162    3.728    3.234   34.846   27.692    0.301    0.798 
 5689  349.335    3.728    3.234   34.846   27.691    0.301    0.798 
 5690  349.509    3.728    3.234   34.846   27.691    0.301    0.798 
 5692  349.682    3.728    3.234   34.845   27.691    0.301    0.798 
 5693  349.855    3.728    3.234   34.845   27.691    0.301    0.798 
 5694  350.029    3.728    3.234   34.845   27.691    0.324    0.798 
 5696  350.202    3.728    3.234   34.845   27.691    0.324    0.795 
 5699  350.376    3.728    3.234   34.845   27.691    0.324    0.792 
 5702  350.549    3.728    3.234   34.845   27.691    0.348    0.789 
 5705  350.722    3.728    3.234   34.845   27.691    0.348    0.789 
 5711  350.896    3.728    3.234   34.845   27.691    0.324    0.786 
 5715  351.069    3.728    3.234   34.845   27.691    0.278    0.786 
 5718  351.243    3.728    3.234   34.845   27.691    0.255    0.786 
 5720  351.416    3.728    3.234   34.844   27.691    0.231    0.786 
 5722  351.589    3.728    3.234   34.844   27.691    0.231    0.786 
 5723  351.763    3.728    3.234   34.844   27.690    0.231    0.786 
 5725  351.936    3.728    3.234   34.844   27.690    0.255    0.786 
 5726  352.110    3.728    3.234   34.844   27.690    0.255    0.786 
 5728  352.283    3.729    3.234   34.843   27.689    0.278    0.786 
 5729  352.456    3.729    3.234   34.843   27.689    0.278    0.784 
 5730  352.630    3.729    3.234   34.843   27.689    0.278    0.784 
 5731  352.803    3.729    3.234   34.843   27.689    0.278    0.784 
 5732  352.976    3.729    3.234   34.843   27.689    0.278    0.784 
 5733  353.150    3.729    3.234   34.842   27.689    0.278    0.784 
 5734  353.323    3.729    3.234   34.842   27.689    0.278    0.781 
 5735  353.497    3.729    3.234   34.842   27.689    0.278    0.781 
 5736  353.670    3.729    3.234   34.842   27.689    0.278    0.781 
 5737  353.843    3.729    3.234   34.842   27.689    0.278    0.778 
 5738  354.017    3.729    3.234   34.842   27.688    0.278    0.778 
 5739  354.190    3.729    3.234   34.842   27.688    0.255    0.778 
 5740  354.364    3.729    3.234   34.842   27.688    0.255    0.778 
 5741  354.537    3.729    3.234   34.842   27.688    0.278    0.778 
 5742  354.710    3.729    3.234   34.842   27.688    0.278    0.778 
 5743  354.884    3.729    3.234   34.842   27.688    0.278    0.775 
 5745  355.057    3.729    3.234   34.841   27.688    0.278    0.775 
 5746  355.230    3.729    3.234   34.841   27.688    0.278    0.775 
 5748  355.404    3.729    3.234   34.841   27.688    0.255    0.772 
 5751  355.577    3.729    3.234   34.841   27.688    0.255    0.772 
 5753  355.751    3.729    3.234   34.841   27.688    0.255    0.772 
 5758  355.924    3.730    3.234   34.840   27.687    0.278    0.772 
 5763  356.097    3.730    3.234   34.840   27.687    0.255    0.772 
 5766  356.271    3.730    3.234   34.840   27.687    0.255    0.778 
 5768  356.444    3.730    3.234   34.840   27.687    0.255    0.784 
 5771  356.618    3.730    3.234   34.840   27.686    0.231    0.786 
 5772  356.791    3.730    3.234   34.840   27.686    0.231    0.786 
 5773  356.964    3.730    3.234   34.840   27.686    0.255    0.786 
 5775  357.138    3.730    3.234   34.840   27.686    0.231    0.786 
 5776  357.311    3.730    3.234   34.840   27.686    0.255    0.786 
 5777  357.484    3.730    3.234   34.840   27.686    0.255    0.789 
 5778  357.658    3.730    3.234   34.840   27.686    0.231    0.789 
 5779  357.831    3.730    3.234   34.840   27.686    0.231    0.789 
 5780  358.005    3.730    3.234   34.840   27.686    0.231    0.789 
 5781  358.178    3.730    3.234   34.840   27.686    0.255    0.789 
 5782  358.351    3.731    3.234   34.840   27.686    0.255    0.792 
 5784  358.525    3.732    3.235   34.846   27.692    0.255    0.792 
 5785  358.698    3.732    3.235   34.846   27.692    0.231    0.792 
 5786  358.872    3.732    3.235   34.846   27.692    0.255    0.792 
 5787  359.045    3.732    3.235   34.846   27.692    0.255    0.792 
 5788  359.218    3.732    3.235   34.846   27.692    0.255    0.792 
 5789  359.392    3.732    3.235   34.846   27.692    0.231    0.792 
 5790  359.565    3.733    3.235   34.846   27.692    0.255    0.792 
 5792  359.738    3.733    3.235   34.846   27.692    0.255    0.792 
 5793  359.912    3.733    3.235   34.846   27.692    0.255    0.795 
 5795  360.085    3.733    3.235   34.846   27.692    0.255    0.795 
 5796  360.259    3.733    3.235   34.846   27.692    0.255    0.795 
 5799  360.432    3.733    3.235   34.846   27.692    0.255    0.795 
 5800  360.605    3.734    3.235   34.845   27.690    0.255    0.795 
 5803  360.779    3.734    3.235   34.845   27.690    0.255    0.795 
 5806  360.952    3.734    3.235   34.845   27.690    0.255    0.795 
 5807  361.126    3.734    3.235   34.845   27.690    0.255    0.795 
 5811  361.299    3.734    3.235   34.845   27.690    0.278    0.795 
 5813  361.472    3.735    3.235   34.844   27.689    0.278    0.795 
 5815  361.646    3.735    3.235   34.843   27.689    0.278    0.795 
 5818  361.819    3.737    3.235   34.841   27.687    0.278    0.795 
 5819  361.992    3.737    3.235   34.841   27.687    0.278    0.795 
 5820  362.166    3.737    3.235   34.841   27.687    0.278    0.795 
 5821  362.339    3.737    3.235   34.841   27.687    0.278    0.795 
 5823  362.513    3.737    3.235   34.841   27.687    0.278    0.798 
 5825  362.859    3.737    3.235   34.841   27.687    0.278    0.798 
 5826  363.033    3.737    3.235   34.841   27.687    0.278    0.798 
 5828  363.206    3.737    3.235   34.840   27.687    0.278    0.798 
 5829  363.379    3.737    3.235   34.840   27.686    0.278    0.798 
 5830  363.553    3.737    3.235   34.840   27.686    0.278    0.798 
 5831  363.726    3.737    3.235   34.840   27.686    0.278    0.798 
 5832  363.900    3.737    3.235   34.840   27.686    0.278    0.798 
 5835  364.246    3.737    3.235   34.840   27.686    0.278    0.801 
 5836  364.420    3.737    3.235   34.840   27.686    0.278    0.801 
 5837  364.593    3.737    3.235   34.840   27.686    0.278    0.801 
 5839  364.767    3.737    3.235   34.840   27.686    0.278    0.801 
 5841  364.940    3.737    3.235   34.840   27.686    0.278    0.798 
 5842  365.113    3.737    3.235   34.840   27.686    0.278    0.798 
 5844  365.287    3.737    3.235   34.840   27.686    0.301    0.798 
 5849  365.460    3.737    3.235   34.840   27.686    0.301    0.795 
 5853  365.633    3.737    3.235   34.840   27.686    0.301    0.795 
 5856  365.807    3.737    3.235   34.840   27.686    0.301    0.795 
 5859  365.980    3.737    3.236   34.850   27.694    0.301    0.792 
 5862  366.154    3.737    3.236   34.850   27.694    0.301    0.792 
 5863  366.327    3.737    3.236   34.850   27.694    0.301    0.792 
 5865  366.500    3.737    3.236   34.850   27.694    0.301    0.789 
 5866  366.674    3.737    3.236   34.850   27.694    0.301    0.789 
 5867  366.847    3.737    3.236   34.850   27.694    0.301    0.789 
 5868  367.020    3.737    3.236   34.850   27.694    0.301    0.789 
 5870  367.194    3.737    3.236   34.850   27.694    0.301    0.786 
 5871  367.367    3.737    3.236   34.850   27.694    0.301    0.784 
 5873  367.541    3.737    3.236   34.850   27.694    0.301    0.784 
 5874  367.714    3.737    3.236   34.850   27.694    0.324    0.784 
 5875  367.887    3.737    3.236   34.850   27.694    0.324    0.784 
 5876  368.061    3.737    3.236   34.850   27.694    0.324    0.784 
 5877  368.234    3.737    3.236   34.850   27.694    0.324    0.784 
 5878  368.407    3.737    3.236   34.850   27.694    0.324    0.784 
 5880  368.581    3.737    3.236   34.850   27.694    0.324    0.786 
 5882  368.754    3.737    3.236   34.849   27.694    0.324    0.789 
 5883  368.928    3.737    3.236   34.849   27.694    0.278    0.789 
 5885  369.101    3.737    3.236   34.849   27.693    0.278    0.789 
 5886  369.274    3.737    3.236   34.849   27.693    0.278    0.789 
 5888  369.448    3.737    3.236   34.849   27.693    0.278    0.789 
 5890  369.621    3.737    3.236   34.849   27.693    0.278    0.789 
 5892  369.794    3.737    3.236   34.849   27.693    0.278    0.789 
 5893  369.968    3.737    3.236   34.849   27.693    0.278    0.789 
 5895  370.141    3.737    3.236   34.849   27.693    0.278    0.789 
 5897  370.315    3.737    3.236   34.849   27.693    0.324    0.784 
 5900  370.488    3.737    3.236   34.849   27.693    0.324    0.784 
 5902  370.661    3.738    3.236   34.847   27.692    0.324    0.784 
 5903  370.835    3.738    3.236   34.847   27.692    0.324    0.784 
 5905  371.008    3.738    3.236   34.847   27.692    0.324    0.784 
 5907  371.181    3.738    3.236   34.847   27.692    0.324    0.795 
 5910  371.355    3.738    3.236   34.847   27.692    0.324    0.798 
 5912  371.528    3.738    3.236   34.847   27.692    0.301    0.798 
 5914  371.702    3.738    3.236   34.847   27.691    0.301    0.801 
 5916  371.875    3.738    3.236   34.847   27.691    0.301    0.804 
 5917  372.048    3.738    3.236   34.847   27.691    0.301    0.804 
 5919  372.222    3.738    3.236   34.847   27.691    0.301    0.807 
 5921  372.568    3.738    3.236   34.846   27.691    0.301    0.825 
 5923  372.742    3.738    3.236   34.846   27.691    0.278    0.831 
 5925  372.915    3.738    3.236   34.846   27.691    0.278    0.831 
 5926  373.089    3.738    3.236   34.846   27.691    0.278    0.831 
 5927  373.262    3.738    3.236   34.846   27.691    0.278    0.831 
 5928  373.435    3.738    3.236   34.846   27.691    0.278    0.831 
 5929  373.609    3.738    3.236   34.846   27.691    0.278    0.831 
 5931  373.955    3.738    3.236   34.846   27.690    0.278    0.831 
 5933  374.129    3.738    3.236   34.845   27.690    0.278    0.828 
 5934  374.302    3.738    3.236   34.845   27.690    0.301    0.825 
 5935  374.476    3.738    3.236   34.845   27.690    0.301    0.819 
 5936  374.649    3.738    3.236   34.845   27.690    0.301    0.819 
 5937  374.822    3.738    3.236   34.845   27.690    0.301    0.819 
 5938  374.996    3.738    3.236   34.845   27.690    0.301    0.819 
 5939  375.169    3.738    3.236   34.845   27.690    0.301    0.816 
 5940  375.342    3.738    3.236   34.845   27.690    0.278    0.813 
 5942  375.516    3.738    3.236   34.845   27.690    0.278    0.810 
 5944  375.689    3.738    3.236   34.845   27.690    0.301    0.807 
 5946  375.863    3.738    3.236   34.845   27.690    0.278    0.807 
 5947  376.036    3.738    3.236   34.844   27.690    0.278    0.807 
 5953  376.209    3.738    3.236   34.844   27.689    0.278    0.807 
 5966  376.383    3.738    3.236   34.844   27.689    0.278    0.807 
 5970  376.556    3.738    3.236   34.844   27.689    0.301    0.801 
 5972  376.729    3.738    3.236   34.844   27.689    0.301    0.801 
 5973  376.903    3.738    3.236   34.844   27.689    0.324    0.801 
 5974  377.076    3.739    3.236   34.843   27.688    0.324    0.801 
 5976  377.249    3.739    3.236   34.843   27.688    0.324    0.801 
 5977  377.423    3.739    3.236   34.843   27.688    0.324    0.801 
 5978  377.596    3.739    3.236   34.843   27.688    0.324    0.801 
 5979  377.770    3.739    3.236   34.842   27.688    0.324    0.801 
 5981  378.116    3.739    3.236   34.842   27.688    0.324    0.801 
 5982  378.290    3.739    3.236   34.842   27.688    0.324    0.801 
 5983  378.463    3.739    3.236   34.842   27.688    0.324    0.801 
 5984  378.636    3.739    3.236   34.842   27.688    0.324    0.804 
 5985  378.983    3.739    3.236   34.842   27.688    0.324    0.804 
 5987  379.330    3.739    3.236   34.842   27.688    0.324    0.804 
 5988  379.677    3.739    3.236   34.842   27.688    0.324    0.804 
 5989  379.850    3.739    3.236   34.842   27.688    0.324    0.804 
 5990  380.023    3.739    3.236   34.842   27.688    0.278    0.804 
 5991  380.197    3.739    3.236   34.842   27.688    0.278    0.804 
 5992  380.370    3.739    3.236   34.842   27.688    0.278    0.804 
 5993  380.543    3.739    3.236   34.842   27.688    0.255    0.807 
 5994  380.717    3.740    3.236   34.842   27.688    0.255    0.807 
 5995  381.064    3.740    3.236   34.842   27.688    0.255    0.807 
 5997  381.237    3.740    3.237   34.851   27.694    0.278    0.807 
 5998  381.410    3.740    3.237   34.851   27.694    0.278    0.807 
 5999  381.584    3.740    3.237   34.851   27.694    0.278    0.807 
 6000  381.757    3.740    3.237   34.851   27.694    0.278    0.807 
 6001  381.930    3.740    3.237   34.851   27.694    0.278    0.807 
 6002  382.104    3.740    3.237   34.851   27.694    0.278    0.807 
 6004  382.277    3.740    3.237   34.851   27.694    0.278    0.807 
 6005  382.451    3.740    3.237   34.851   27.694    0.278    0.807 
 6007  382.624    3.740    3.237   34.851   27.694    0.278    0.807 
 6011  382.797    3.740    3.237   34.851   27.694    0.255    0.801 
 6019  382.971    3.740    3.237   34.851   27.694    0.255    0.761 
 6029  383.144    3.740    3.237   34.850   27.694    0.255    0.755 
 6031  383.317    3.740    3.237   34.850   27.694    0.255    0.758 
 6032  383.491    3.740    3.237   34.850   27.694    0.255    0.758 
 6034  383.664    3.740    3.237   34.850   27.694    0.255    0.761 
 6036  383.837    3.740    3.237   34.850   27.694    0.278    0.761 
 6037  384.011    3.740    3.237   34.850   27.694    0.278    0.761 
 6038  384.184    3.740    3.237   34.850   27.694    0.278    0.761 
 6039  384.358    3.740    3.237   34.850   27.694    0.278    0.761 
 6040  384.531    3.740    3.237   34.850   27.693    0.278    0.764 
 6042  384.878    3.741    3.237   34.848   27.692    0.278    0.764 
 6043  385.051    3.741    3.237   34.848   27.692    0.278    0.764 
 6044  385.224    3.741    3.237   34.848   27.692    0.278    0.764 
 6045  385.398    3.741    3.237   34.848   27.692    0.278    0.766 
 6046  385.571    3.741    3.237   34.848   27.692    0.278    0.766 
 6047  385.744    3.741    3.237   34.848   27.692    0.255    0.766 
 6048  385.918    3.741    3.237   34.848   27.692    0.255    0.766 
 6049  386.091    3.741    3.237   34.848   27.692    0.255    0.769 
 6050  386.438    3.741    3.237   34.848   27.692    0.255    0.769 
 6052  386.611    3.741    3.237   34.848   27.692    0.255    0.772 
 6053  386.785    3.741    3.237   34.847   27.692    0.278    0.772 
 6054  386.958    3.741    3.237   34.847   27.692    0.278    0.775 
 6055  387.131    3.741    3.237   34.847   27.691    0.278    0.775 
 6057  387.305    3.741    3.237   34.847   27.691    0.278    0.778 
 6059  387.478    3.741    3.237   34.847   27.691    0.278    0.784 
 6062  387.651    3.741    3.237   34.847   27.691    0.278    0.789 
 6066  387.825    3.741    3.237   34.847   27.691    0.278    0.795 
 6071  387.998    3.741    3.237   34.847   27.691    0.278    0.801 
 6076  388.172    3.741    3.237   34.847   27.691    0.278    0.804 
 6077  388.345    3.741    3.237   34.847   27.691    0.278    0.804 
 6080  388.518    3.741    3.237   34.847   27.691    0.278    0.804 
 6081  388.692    3.741    3.237   34.846   27.691    0.278    0.807 
 6083  388.865    3.742    3.237   34.845   27.690    0.278    0.810 
 6084  389.038    3.742    3.237   34.845   27.690    0.278    0.810 
 6086  389.212    3.742    3.237   34.845   27.690    0.278    0.810 
 6088  389.558    3.742    3.237   34.845   27.689    0.278    0.810 
 6089  389.732    3.742    3.237   34.845   27.689    0.278    0.813 
 6091  389.905    3.742    3.237   34.845   27.689    0.278    0.813 
 6092  390.078    3.742    3.237   34.845   27.689    0.278    0.813 
 6093  390.252    3.742    3.237   34.845   27.689    0.278    0.813 
 6094  390.425    3.742    3.237   34.844   27.689    0.278    0.813 
 6095  390.599    3.742    3.237   34.844   27.689    0.278    0.810 
 6097  390.772    3.742    3.237   34.844   27.689    0.278    0.810 
 6098  390.945    3.742    3.237   34.844   27.689    0.278    0.810 
 6100  391.119    3.743    3.237   34.843   27.688    0.278    0.810 
 6101  391.292    3.743    3.237   34.843   27.688    0.278    0.810 
 6102  391.465    3.743    3.237   34.843   27.688    0.278    0.810 
 6103  391.639    3.743    3.237   34.843   27.688    0.301    0.810 
 6105  391.812    3.743    3.237   34.843   27.688    0.324    0.810 
 6106  391.985    3.743    3.237   34.843   27.688    0.301    0.810 
 6108  392.159    3.743    3.237   34.842   27.687    0.301    0.810 
 6109  392.332    3.743    3.237   34.842   27.687    0.301    0.810 
 6111  392.505    3.743    3.237   34.842   27.687    0.301    0.807 
 6112  392.679    3.743    3.237   34.842   27.687    0.301    0.807 
 6114  392.852    3.743    3.237   34.842   27.687    0.301    0.807 
 6115  393.026    3.743    3.237   34.842   27.687    0.301    0.807 
 6116  393.199    3.743    3.237   34.842   27.687    0.278    0.807 
 6118  393.372    3.743    3.237   34.842   27.687    0.255    0.807 
 6120  393.546    3.743    3.237   34.842   27.687    0.278    0.807 
 6122  393.719    3.743    3.237   34.842   27.687    0.278    0.804 
 6123  393.892    3.743    3.237   34.842   27.687    0.255    0.804 
 6125  394.066    3.743    3.237   34.842   27.687    0.255    0.804 
 6127  394.239    3.743    3.238   34.852   27.695    0.255    0.804 
 6128  394.412    3.743    3.238   34.852   27.695    0.255    0.801 
 6131  394.586    3.743    3.238   34.852   27.695    0.278    0.801 
 6133  394.759    3.743    3.238   34.852   27.695    0.255    0.798 
 6135  394.932    3.743    3.238   34.852   27.695    0.278    0.798 
 6139  395.106    3.743    3.238   34.852   27.695    0.278    0.798 
 6141  395.279    3.743    3.238   34.852   27.695    0.255    0.798 
 6142  395.453    3.743    3.238   34.852   27.695    0.278    0.798 
 6145  395.626    3.743    3.238   34.852   27.695    0.255    0.798 
 6146  395.799    3.743    3.238   34.852   27.695    0.255    0.798 
 6148  395.973    3.743    3.238   34.852   27.695    0.278    0.804 
 6150  396.146    3.743    3.238   34.852   27.695    0.278    0.807 
 6152  396.319    3.743    3.238   34.852   27.695    0.278    0.810 
 6154  396.666    3.743    3.238   34.852   27.695    0.278    0.810 
 6156  396.839    3.743    3.238   34.852   27.695    0.278    0.807 
 6158  397.013    3.743    3.238   34.852   27.695    0.301    0.804 
 6160  397.186    3.743    3.238   34.852   27.695    0.278    0.804 
 6161  397.359    3.743    3.238   34.852   27.695    0.278    0.804 
 6163  397.533    3.743    3.238   34.851   27.695    0.278    0.804 
 6165  397.706    3.744    3.238   34.850   27.694    0.324    0.804 
 6166  397.880    3.744    3.238   34.850   27.693    0.324    0.804 
 6168  398.053    3.744    3.238   34.850   27.693    0.278    0.801 
 6169  398.226    3.744    3.238   34.850   27.693    0.278    0.801 
 6171  398.400    3.744    3.238   34.850   27.693    0.278    0.798 
 6173  398.573    3.744    3.238   34.850   27.693    0.278    0.798 
 6175  398.746    3.744    3.238   34.850   27.693    0.278    0.798 
 6176  398.920    3.744    3.238   34.850   27.693    0.278    0.798 
 6178  399.093    3.744    3.238   34.850   27.693    0.278    0.798 
 6179  399.266    3.744    3.238   34.849   27.693    0.278    0.795 
 6181  399.440    3.744    3.238   34.849   27.693    0.278    0.795 
 6183  399.613    3.744    3.238   34.849   27.693    0.278    0.795 
 6185  399.786    3.744    3.238   34.849   27.693    0.278    0.792 
 6186  399.960    3.744    3.238   34.849   27.693    0.278    0.792 
 6188  400.133    3.744    3.238   34.849   27.693    0.278    0.792 
 6189  400.306    3.744    3.238   34.849   27.693    0.278    0.792 
 6191  400.480    3.744    3.238   34.849   27.692    0.278    0.792 
 6193  400.653    3.744    3.238   34.849   27.692    0.278    0.789 
 6194  400.827    3.744    3.238   34.849   27.692    0.278    0.789 
 6196  401.000    3.744    3.238   34.849   27.692    0.278    0.789 
 6197  401.173    3.744    3.238   34.848   27.692    0.278    0.789 
 6198  401.347    3.744    3.238   34.848   27.692    0.278    0.789 
 6199  401.520    3.744    3.238   34.848   27.692    0.278    0.786 
 6201  401.693    3.744    3.238   34.848   27.692    0.278    0.786 
 6202  401.867    3.744    3.238   34.848   27.692    0.278    0.786 
 6204  402.040    3.744    3.238   34.848   27.692    0.278    0.786 
 6205  402.213    3.744    3.238   34.848   27.692    0.278    0.786 
 6206  402.387    3.744    3.238   34.848   27.692    0.278    0.786 
 6208  402.560    3.744    3.238   34.848   27.692    0.278    0.786 
 6210  402.733    3.744    3.238   34.848   27.691    0.278    0.789 
 6211  402.907    3.744    3.238   34.848   27.691    0.278    0.789 
 6213  403.080    3.745    3.238   34.846   27.690    0.231    0.792 
 6214  403.253    3.745    3.238   34.846   27.690    0.231    0.795 
 6216  403.427    3.745    3.238   34.846   27.690    0.231    0.795 
 6218  403.600    3.745    3.238   34.846   27.690    0.231    0.795 
 6220  403.773    3.745    3.238   34.846   27.690    0.208    0.798 
 6224  403.947    3.745    3.238   34.846   27.690    0.231    0.795 
 6226  404.120    3.745    3.238   34.846   27.690    0.208    0.795 
 6228  404.294    3.745    3.238   34.846   27.690    0.208    0.795 
 6230  404.467    3.745    3.238   34.846   27.690    0.231    0.795 
 6233  404.640    3.745    3.238   34.846   27.690    0.231    0.795 
 6235  404.814    3.745    3.238   34.845   27.690    0.255    0.795 
 6237  404.987    3.745    3.238   34.845   27.690    0.255    0.792 
 6239  405.160    3.745    3.238   34.845   27.689    0.255    0.792 
 6240  405.334    3.745    3.238   34.845   27.689    0.278    0.792 
 6242  405.507    3.745    3.238   34.845   27.689    0.278    0.792 
 6244  405.680    3.745    3.238   34.845   27.689    0.278    0.792 
 6245  405.854    3.745    3.238   34.845   27.689    0.255    0.792 
 6246  406.027    3.745    3.238   34.845   27.689    0.278    0.792 
 6248  406.200    3.745    3.238   34.845   27.689    0.278    0.795 
 6250  406.374    3.746    3.238   34.845   27.689    0.278    0.795 
 6251  406.547    3.746    3.238   34.845   27.689    0.278    0.798 
 6252  406.720    3.746    3.238   34.845   27.689    0.278    0.801 
 6253  406.894    3.746    3.238   34.845   27.689    0.278    0.807 
 6255  407.067    3.746    3.238   34.845   27.689    0.301    0.810 
 6256  407.240    3.746    3.238   34.845   27.689    0.301    0.810 
 6258  407.414    3.746    3.238   34.845   27.689    0.301    0.810 
 6259  407.587    3.746    3.238   34.845   27.689    0.301    0.810 
 6261  407.760    3.746    3.238   34.845   27.689    0.301    0.810 
 6263  407.934    3.747    3.239   34.853   27.695    0.301    0.810 
 6264  408.107    3.747    3.239   34.853   27.695    0.301    0.810 
 6266  408.281    3.747    3.239   34.853   27.695    0.301    0.810 
 6267  408.454    3.747    3.239   34.853   27.695    0.278    0.810 
 6269  408.627    3.747    3.239   34.853   27.695    0.278    0.810 
 6272  408.801    3.747    3.239   34.853   27.695    0.278    0.810 
 6274  408.974    3.747    3.239   34.853   27.695    0.231    0.807 
 6275  409.147    3.747    3.239   34.853   27.695    0.231    0.807 
 6279  409.321    3.747    3.239   34.853   27.695    0.231    0.804 
 6281  409.494    3.747    3.239   34.853   27.695    0.231    0.801 
 6283  409.667    3.747    3.239   34.853   27.695    0.231    0.801 
 6285  409.841    3.747    3.239   34.853   27.695    0.231    0.801 
 6287  410.014    3.747    3.239   34.852   27.695    0.255    0.798 
 6288  410.187    3.747    3.239   34.852   27.695    0.255    0.798 
 6291  410.361    3.747    3.239   34.852   27.695    0.255    0.795 
 6292  410.534    3.747    3.239   34.852   27.695    0.255    0.795 
 6294  410.707    3.747    3.239   34.852   27.695    0.255    0.795 
 6295  410.881    3.747    3.239   34.852   27.695    0.255    0.795 
 6296  411.054    3.747    3.239   34.852   27.695    0.255    0.795 
 6297  411.227    3.747    3.239   34.852   27.694    0.278    0.795 
 6298  411.401    3.747    3.239   34.852   27.694    0.278    0.795 
 6300  411.574    3.747    3.239   34.852   27.694    0.278    0.795 
 6301  411.747    3.747    3.239   34.852   27.694    0.278    0.795 
 6303  411.921    3.747    3.239   34.851   27.694    0.278    0.795 
 6304  412.094    3.747    3.239   34.851   27.694    0.278    0.792 
 6305  412.267    3.747    3.239   34.851   27.694    0.278    0.792 
 6306  412.441    3.747    3.239   34.851   27.694    0.278    0.795 
 6308  412.614    3.747    3.239   34.851   27.694    0.278    0.795 
 6309  412.787    3.747    3.239   34.851   27.694    0.278    0.792 
 6310  412.961    3.747    3.239   34.851   27.694    0.278    0.792 
 6311  413.134    3.748    3.239   34.850   27.693    0.278    0.792 
 6314  413.481    3.748    3.239   34.850   27.693    0.278    0.792 
 6317  413.654    3.748    3.239   34.849   27.693    0.278    0.792 
 6318  413.827    3.748    3.239   34.849   27.692    0.278    0.792 
 6320  414.001    3.748    3.239   34.849   27.692    0.278    0.792 
 6323  414.174    3.748    3.239   34.849   27.692    0.278    0.789 
 6325  414.348    3.748    3.239   34.849   27.692    0.278    0.789 
 6328  414.521    3.748    3.239   34.849   27.692    0.301    0.789 
 6330  414.694    3.748    3.239   34.849   27.692    0.301    0.789 
 6333  414.868    3.748    3.239   34.849   27.692    0.324    0.786 
 6335  415.041    3.748    3.239   34.849   27.692    0.324    0.786 
 6337  415.214    3.748    3.239   34.849   27.692    0.348    0.786 
 6339  415.388    3.748    3.239   34.849   27.692    0.324    0.786 
 6341  415.561    3.748    3.239   34.848   27.692    0.301    0.784 
 6343  415.734    3.748    3.239   34.848   27.692    0.301    0.784 
 6344  415.908    3.748    3.239   34.848   27.692    0.301    0.784 
 6346  416.081    3.748    3.239   34.848   27.691    0.278    0.784 
 6347  416.254    3.748    3.239   34.848   27.691    0.278    0.784 
 6348  416.428    3.748    3.239   34.848   27.691    0.278    0.784 
 6350  416.601    3.748    3.239   34.848   27.691    0.278    0.784 
 6351  416.774    3.748    3.239   34.848   27.691    0.255    0.784 
 6353  416.948    3.748    3.239   34.848   27.691    0.255    0.784 
 6354  417.121    3.748    3.239   34.848   27.691    0.255    0.784 
 6355  417.294    3.748    3.239   34.847   27.691    0.255    0.784 
 6356  417.468    3.748    3.239   34.847   27.691    0.255    0.784 
 6358  417.641    3.749    3.239   34.846   27.690    0.255    0.784 
 6359  417.814    3.749    3.239   34.846   27.690    0.255    0.784 
 6360  417.988    3.749    3.239   34.846   27.690    0.255    0.786 
 6362  418.161    3.749    3.239   34.846   27.690    0.255    0.786 
 6363  418.334    3.749    3.239   34.846   27.690    0.255    0.786 
 6365  418.508    3.749    3.239   34.846   27.689    0.255    0.786 
 6367  418.681    3.749    3.239   34.846   27.689    0.255    0.784 
 6369  418.854    3.749    3.239   34.846   27.689    0.255    0.784 
 6371  419.028    3.749    3.239   34.845   27.689    0.255    0.784 
 6373  419.201    3.749    3.239   34.845   27.689    0.278    0.781 
 6376  419.374    3.749    3.239   34.845   27.689    0.278    0.775 
 6377  419.548    3.749    3.239   34.845   27.689    0.278    0.775 
 6379  419.721    3.749    3.239   34.845   27.689    0.255    0.775 
 6381  419.894    3.749    3.239   34.845   27.689    0.278    0.775 
 6383  420.068    3.749    3.239   34.845   27.689    0.278    0.775 
 6384  420.241    3.749    3.239   34.845   27.689    0.278    0.775 
 6386  420.414    3.749    3.239   34.845   27.689    0.301    0.795 
 6387  420.588    3.749    3.239   34.845   27.689    0.301    0.795 
 6389  420.761    3.749    3.239   34.845   27.688    0.301    0.795 
 6391  421.108    3.749    3.239   34.845   27.688    0.324    0.795 
 6393  421.281    3.749    3.239   34.845   27.688    0.301    0.795 
 6394  421.454    3.749    3.239   34.845   27.688    0.278    0.795 
 6396  421.628    3.749    3.239   34.845   27.688    0.278    0.795 
 6398  421.801    3.749    3.239   34.845   27.688    0.278    0.795 
 6399  421.974    3.749    3.239   34.845   27.688    0.278    0.795 
 6401  422.148    3.749    3.239   34.845   27.688    0.278    0.795 
 6403  422.321    3.749    3.239   34.845   27.688    0.278    0.795 
 6404  422.494    3.749    3.239   34.845   27.688    0.278    0.795 
 6408  422.668    3.749    3.239   34.845   27.688    0.278    0.795 
 6411  422.841    3.749    3.240   34.854   27.696    0.255    0.795 
 6415  423.014    3.749    3.240   34.854   27.696    0.255    0.804 
 6418  423.188    3.749    3.240   34.854   27.696    0.255    0.810 
 6420  423.361    3.749    3.240   34.854   27.696    0.278    0.810 
 6422  423.534    3.749    3.240   34.854   27.696    0.278    0.810 
 6424  423.708    3.749    3.240   34.854   27.696    0.278    0.810 
 6425  423.881    3.749    3.240   34.854   27.696    0.278    0.810 
 6428  424.054    3.749    3.240   34.854   27.696    0.255    0.810 
 6429  424.228    3.749    3.240   34.854   27.696    0.255    0.807 
 6430  424.401    3.749    3.240   34.854   27.696    0.278    0.807 
 6431  424.574    3.749    3.240   34.854   27.696    0.278    0.804 
 6432  424.748    3.749    3.240   34.854   27.696    0.278    0.801 
 6434  424.921    3.749    3.240   34.854   27.696    0.278    0.798 
 6435  425.094    3.749    3.240   34.854   27.696    0.255    0.795 
 6436  425.268    3.749    3.240   34.854   27.696    0.255    0.795 
 6438  425.441    3.750    3.240   34.853   27.695    0.255    0.795 
 6439  425.614    3.750    3.240   34.853   27.695    0.278    0.795 
 6440  425.788    3.750    3.240   34.853   27.695    0.255    0.795 
 6441  425.961    3.750    3.240   34.853   27.695    0.255    0.795 
 6443  426.134    3.750    3.240   34.853   27.695    0.255    0.795 
 6444  426.308    3.750    3.240   34.852   27.695    0.255    0.795 
 6445  426.481    3.750    3.240   34.852   27.695    0.278    0.795 
 6447  426.654    3.750    3.240   34.852   27.695    0.278    0.795 
 6448  426.828    3.750    3.240   34.852   27.694    0.278    0.795 
 6450  427.174    3.750    3.240   34.852   27.694    0.278    0.795 
 6453  427.348    3.750    3.240   34.852   27.694    0.278    0.795 
 6454  427.521    3.750    3.240   34.852   27.694    0.278    0.798 
 6456  427.694    3.750    3.240   34.852   27.694    0.278    0.798 
 6458  427.868    3.750    3.240   34.852   27.694    0.278    0.798 
 6460  428.041    3.750    3.240   34.852   27.694    0.278    0.798 
 6463  428.214    3.750    3.240   34.851   27.694    0.278    0.798 
 6465  428.388    3.750    3.240   34.851   27.694    0.278    0.798 
 6467  428.561    3.750    3.240   34.851   27.694    0.278    0.795 
 6470  428.734    3.750    3.240   34.851   27.694    0.255    0.798 
 6472  428.908    3.750    3.240   34.851   27.694    0.255    0.798 
 6474  429.081    3.750    3.240   34.851   27.693    0.255    0.798 
 6476  429.254    3.750    3.240   34.851   27.693    0.255    0.795 
 6478  429.428    3.750    3.240   34.851   27.693    0.255    0.795 
 6479  429.601    3.750    3.240   34.851   27.693    0.255    0.792 
 6482  429.774    3.750    3.240   34.851   27.693    0.278    0.792 
 6484  429.948    3.750    3.240   34.851   27.693    0.278    0.792 
 6485  430.121    3.750    3.240   34.850   27.693    0.278    0.792 
 6486  430.294    3.750    3.240   34.850   27.693    0.278    0.792 
 6488  430.468    3.750    3.240   34.850   27.693    0.278    0.789 
 6489  430.641    3.750    3.240   34.850   27.693    0.301    0.789 
 6491  430.814    3.750    3.240   34.850   27.693    0.301    0.786 
 6493  430.988    3.750    3.240   34.850   27.693    0.301    0.786 
 6494  431.161    3.750    3.240   34.850   27.693    0.301    0.786 
 6496  431.334    3.750    3.240   34.850   27.693    0.301    0.786 
 6497  431.508    3.750    3.240   34.850   27.693    0.301    0.786 
 6499  431.681    3.750    3.240   34.850   27.692    0.301    0.786 
 6500  431.854    3.750    3.240   34.849   27.692    0.301    0.786 
 6501  432.028    3.750    3.240   34.849   27.692    0.301    0.786 
 6502  432.201    3.750    3.240   34.849   27.692    0.301    0.786 
 6504  432.374    3.750    3.240   34.849   27.692    0.278    0.786 
 6505  432.548    3.750    3.240   34.849   27.692    0.278    0.786 
 6506  432.721    3.750    3.240   34.849   27.692    0.278    0.798 
 6507  432.894    3.750    3.240   34.849   27.692    0.278    0.798 
 6509  433.068    3.750    3.240   34.849   27.692    0.278    0.798 
 6510  433.241    3.750    3.240   34.849   27.692    0.278    0.798 
 6511  433.414    3.750    3.240   34.849   27.692    0.278    0.798 
 6513  433.588    3.750    3.240   34.849   27.692    0.255    0.798 
 6515  433.761    3.750    3.240   34.848   27.692    0.255    0.798 
 6516  433.934    3.750    3.240   34.848   27.691    0.255    0.798 
 6519  434.108    3.750    3.240   34.848   27.691    0.278    0.798 
 6521  434.281    3.750    3.240   34.848   27.691    0.278    0.792 
 6523  434.454    3.750    3.240   34.848   27.691    0.278    0.792 
 6526  434.628    3.750    3.240   34.848   27.691    0.278    0.792 
 6529  434.801    3.750    3.240   34.848   27.691    0.278    0.789 
 6533  434.974    3.750    3.240   34.848   27.691    0.278    0.789 
 6536  435.147    3.750    3.240   34.848   27.691    0.278    0.789 
 6539  435.321    3.750    3.240   34.848   27.691    0.278    0.789 
 6542  435.494    3.750    3.240   34.848   27.691    0.278    0.789 
 6544  435.667    3.750    3.240   34.847   27.691    0.278    0.789 
 6545  435.841    3.750    3.240   34.847   27.691    0.278    0.792 
 6547  436.014    3.750    3.240   34.847   27.691    0.278    0.792 
 6549  436.187    3.750    3.240   34.847   27.690    0.255    0.798 
 6550  436.361    3.750    3.240   34.847   27.690    0.255    0.801 
 6551  436.534    3.750    3.240   34.847   27.690    0.231    0.810 
 6552  436.707    3.750    3.240   34.847   27.690    0.255    0.810 
 6554  436.881    3.751    3.240   34.846   27.689    0.255    0.816 
 6555  437.054    3.751    3.240   34.846   27.689    0.278    0.816 
 6556  437.227    3.751    3.240   34.846   27.689    0.278    0.816 
 6557  437.401    3.751    3.240   34.845   27.689    0.278    0.816 
 6559  437.747    3.751    3.240   34.845   27.689    0.278    0.816 
 6561  437.921    3.751    3.240   34.845   27.689    0.278    0.816 
 6562  438.094    3.751    3.240   34.845   27.689    0.278    0.813 
 6563  438.267    3.751    3.240   34.845   27.689    0.278    0.813 
 6564  438.441    3.751    3.240   34.845   27.689    0.278    0.813 
 6565  438.614    3.751    3.240   34.845   27.689    0.255    0.810 
 6566  438.787    3.751    3.240   34.845   27.689    0.278    0.810 
 6567  438.961    3.751    3.240   34.845   27.689    0.255    0.807 
 6568  439.134    3.751    3.240   34.845   27.689    0.301    0.807 
 6569  439.307    3.751    3.240   34.845   27.689    0.301    0.807 
 6571  439.481    3.751    3.240   34.845   27.689    0.324    0.807 
 6572  439.654    3.751    3.240   34.845   27.689    0.324    0.807 
 6573  439.827    3.751    3.241   34.854   27.696    0.324    0.807 
 6575  440.001    3.751    3.241   34.854   27.696    0.324    0.804 
 6576  440.174    3.751    3.241   34.854   27.696    0.301    0.798 
 6578  440.347    3.751    3.241   34.854   27.696    0.324    0.795 
 6580  440.521    3.751    3.241   34.854   27.696    0.324    0.789 
 6583  440.694    3.752    3.241   34.854   27.696    0.278    0.786 
 6585  440.867    3.752    3.241   34.854   27.696    0.301    0.786 
 6588  441.040    3.752    3.241   34.854   27.696    0.324    0.784 
 6593  441.214    3.752    3.241   34.854   27.696    0.301    0.781 
 6596  441.387    3.752    3.241   34.854   27.696    0.301    0.781 
 6599  441.560    3.752    3.241   34.854   27.696    0.278    0.781 
 6601  441.734    3.752    3.241   34.854   27.696    0.255    0.781 
 6603  441.907    3.752    3.241   34.854   27.696    0.255    0.781 
 6606  442.080    3.752    3.241   34.854   27.696    0.255    0.784 
 6608  442.254    3.752    3.241   34.854   27.696    0.231    0.784 
 6609  442.427    3.752    3.241   34.854   27.695    0.255    0.784 
 6610  442.600    3.752    3.241   34.854   27.695    0.255    0.784 
 6612  442.774    3.752    3.241   34.853   27.695    0.255    0.784 
 6613  442.947    3.752    3.241   34.853   27.695    0.255    0.784 
 6614  443.120    3.752    3.241   34.853   27.695    0.255    0.784 
 6616  443.294    3.752    3.241   34.853   27.695    0.255    0.784 
 6617  443.467    3.752    3.241   34.853   27.695    0.255    0.784 
 6618  443.640    3.752    3.241   34.853   27.695    0.255    0.784 
 6620  443.814    3.753    3.241   34.852   27.694    0.278    0.784 
 6621  443.987    3.753    3.241   34.852   27.694    0.278    0.784 
 6622  444.160    3.753    3.241   34.852   27.694    0.278    0.781 
 6623  444.334    3.753    3.241   34.852   27.694    0.278    0.778 
 6625  444.507    3.753    3.241   34.851   27.694    0.278    0.778 
 6626  444.680    3.753    3.241   34.851   27.693    0.278    0.778 
 6627  444.853    3.753    3.241   34.851   27.693    0.278    0.778 
 6628  445.027    3.753    3.241   34.851   27.693    0.278    0.778 
 6629  445.200    3.753    3.241   34.851   27.693    0.278    0.778 
 6631  445.373    3.753    3.241   34.851   27.693    0.278    0.778 
 6632  445.547    3.753    3.241   34.851   27.693    0.278    0.778 
 6635  445.720    3.753    3.241   34.851   27.693    0.278    0.775 
 6636  445.893    3.753    3.241   34.851   27.693    0.278    0.775 
 6637  446.067    3.753    3.241   34.851   27.693    0.278    0.775 
 6640  446.240    3.753    3.241   34.851   27.693    0.255    0.772 
 6642  446.413    3.753    3.241   34.850   27.693    0.255    0.772 
 6645  446.587    3.753    3.241   34.850   27.693    0.278    0.775 
 6647  446.760    3.753    3.241   34.850   27.693    0.278    0.775 
 6650  446.933    3.753    3.241   34.850   27.693    0.255    0.775 
 6653  447.107    3.753    3.241   34.850   27.693    0.255    0.775 
 6655  447.280    3.753    3.241   34.850   27.692    0.255    0.775 
 6658  447.453    3.753    3.241   34.850   27.692    0.231    0.778 
 6660  447.627    3.753    3.241   34.850   27.692    0.255    0.784 
 6662  447.800    3.753    3.241   34.850   27.692    0.255    0.784 
 6664  447.973    3.753    3.241   34.850   27.692    0.255    0.786 
 6665  448.147    3.753    3.241   34.850   27.692    0.255    0.786 
 6667  448.320    3.753    3.241   34.849   27.692    0.255    0.789 
 6668  448.493    3.753    3.241   34.849   27.692    0.255    0.789 
 6669  448.666    3.753    3.241   34.849   27.692    0.255    0.789 
 6671  448.840    3.753    3.241   34.849   27.692    0.255    0.795 
 6672  449.013    3.753    3.241   34.849   27.692    0.255    0.795 
 6674  449.186    3.753    3.241   34.849   27.692    0.255    0.795 
 6676  449.360    3.753    3.241   34.849   27.692    0.255    0.795 
 6677  449.533    3.753    3.241   34.849   27.691    0.255    0.795 
 6678  449.706    3.753    3.241   34.849   27.691    0.255    0.795 
 6679  449.880    3.753    3.241   34.849   27.691    0.255    0.795 
 6680  450.053    3.753    3.241   34.848   27.691    0.255    0.795 
 6682  450.226    3.753    3.241   34.848   27.691    0.255    0.795 
 6683  450.400    3.753    3.241   34.848   27.691    0.255    0.795 
 6685  450.746    3.753    3.241   34.848   27.691    0.255    0.795 
 6687  450.920    3.753    3.241   34.848   27.691    0.255    0.795 
 6688  451.093    3.753    3.241   34.848   27.691    0.255    0.795 
 6690  451.266    3.753    3.241   34.848   27.691    0.255    0.795 
 6691  451.439    3.753    3.241   34.848   27.691    0.255    0.795 
 6692  451.613    3.753    3.241   34.848   27.691    0.255    0.795 
 6694  451.786    3.753    3.241   34.848   27.691    0.278    0.795 
 6695  451.959    3.753    3.241   34.847   27.690    0.278    0.795 
 6696  452.133    3.753    3.241   34.847   27.690    0.278    0.795 
 6698  452.306    3.753    3.241   34.847   27.690    0.278    0.795 
 6699  452.479    3.753    3.241   34.847   27.690    0.278    0.795 
 6701  452.653    3.753    3.241   34.847   27.690    0.278    0.795 
 6703  452.826    3.753    3.241   34.847   27.690    0.278    0.795 
 6705  452.999    3.753    3.241   34.847   27.690    0.278    0.795 
 6708  453.173    3.753    3.241   34.847   27.690    0.255    0.795 
 6712  453.346    3.753    3.241   34.847   27.690    0.255    0.789 
 6715  453.519    3.753    3.241   34.847   27.690    0.231    0.789 
 6717  453.693    3.753    3.241   34.847   27.690    0.231    0.789 
 6720  453.866    3.753    3.241   34.847   27.690    0.255    0.789 
 6722  454.039    3.753    3.241   34.846   27.690    0.255    0.798 
 6724  454.212    3.753    3.241   34.846   27.690    0.255    0.798 
 6725  454.386    3.753    3.241   34.846   27.690    0.255    0.798 
 6727  454.559    3.753    3.241   34.846   27.690    0.255    0.798 
 6729  454.732    3.753    3.241   34.846   27.690    0.255    0.798 
 6731  454.906    3.753    3.241   34.846   27.690    0.255    0.798 
 6732  455.079    3.753    3.241   34.846   27.690    0.255    0.798 
 6734  455.252    3.753    3.241   34.846   27.690    0.301    0.798 
 6735  455.426    3.753    3.241   34.846   27.690    0.301    0.798 
 6737  455.599    3.752    3.241   34.846   27.690    0.301    0.798 
 6738  455.772    3.752    3.241   34.847   27.690    0.324    0.798 
 6740  455.946    3.751    3.241   34.847   27.690    0.301    0.795 
 6742  456.119    3.751    3.241   34.847   27.691    0.301    0.795 
 6743  456.292    3.751    3.241   34.847   27.691    0.278    0.795 
 6745  456.465    3.750    3.241   34.848   27.691    0.278    0.795 
 6748  456.639    3.750    3.241   34.848   27.691    0.278    0.798 
 6749  456.812    3.750    3.241   34.848   27.691    0.255    0.798 
 6751  456.985    3.750    3.241   34.848   27.691    0.255    0.798 
 6752  457.159    3.750    3.241   34.848   27.691    0.255    0.798 
 6754  457.332    3.750    3.241   34.848   27.691    0.255    0.798 
 6756  457.505    3.750    3.241   34.848   27.691    0.255    0.798 
 6758  457.679    3.750    3.241   34.848   27.691    0.231    0.798 
 6759  457.852    3.749    3.241   34.848   27.691    0.231    0.798 
 6761  458.025    3.749    3.241   34.848   27.691    0.255    0.798 
 6762  458.199    3.749    3.241   34.848   27.692    0.231    0.798 
 6764  458.372    3.749    3.241   34.848   27.692    0.255    0.798 
 6765  458.545    3.749    3.241   34.848   27.692    0.255    0.798 
 6767  458.718    3.749    3.241   34.848   27.692    0.255    0.795 
 6768  458.892    3.748    3.241   34.848   27.692    0.255    0.795 
 6770  459.065    3.748    3.241   34.848   27.692    0.255    0.792 
 6772  459.238    3.748    3.241   34.848   27.692    0.255    0.792 
 6773  459.412    3.748    3.241   34.848   27.692    0.255    0.792 
 6774  459.585    3.748    3.241   34.848   27.692    0.255    0.792 
 6776  459.758    3.748    3.241   34.848   27.692    0.255    0.789 
 6777  459.932    3.748    3.241   34.848   27.692    0.255    0.789 
 6779  460.105    3.748    3.241   34.848   27.692    0.255    0.789 
 6780  460.278    3.748    3.241   34.848   27.692    0.231    0.789 
 6782  460.452    3.748    3.241   34.848   27.692    0.231    0.789 
 6783  460.625    3.748    3.241   34.848   27.692    0.255    0.789 
 6785  460.798    3.748    3.241   34.848   27.692    0.231    0.789 
 6787  460.971    3.748    3.241   34.848   27.692    0.231    0.786 
 6788  461.145    3.748    3.241   34.848   27.692    0.255    0.786 
 6790  461.318    3.748    3.241   34.848   27.692    0.255    0.786 
 6791  461.491    3.748    3.241   34.848   27.692    0.231    0.786 
 6793  461.665    3.748    3.241   34.848   27.692    0.231    0.786 
 6795  461.838    3.748    3.241   34.848   27.692    0.231    0.786 
 6796  462.011    3.748    3.241   34.848   27.692    0.231    0.786 
 6798  462.185    3.747    3.241   34.848   27.692    0.231    0.786 
 6800  462.358    3.747    3.241   34.848   27.692    0.231    0.786 
 6801  462.531    3.747    3.241   34.848   27.692    0.255    0.786 
 6803  462.705    3.747    3.241   34.848   27.692    0.255    0.786 
 6805  462.878    3.747    3.241   34.848   27.692    0.255    0.786 
 6806  463.051    3.747    3.241   34.848   27.692    0.231    0.786 
 6808  463.224    3.747    3.241   34.848   27.692    0.231    0.786 
 6809  463.398    3.747    3.241   34.848   27.692    0.231    0.786 
 6812  463.571    3.746    3.241   34.849   27.692    0.231    0.786 
 6814  463.744    3.745    3.241   34.850   27.693    0.255    0.786 
 6816  463.918    3.745    3.241   34.850   27.693    0.255    0.786 
 6819  464.091    3.744    3.241   34.850   27.694    0.255    0.786 
 6821  464.264    3.744    3.241   34.850   27.694    0.255    0.786 
 6824  464.438    3.744    3.241   34.851   27.694    0.255    0.786 
 6827  464.611    3.743    3.241   34.851   27.694    0.278    0.786 
 6828  464.784    3.743    3.241   34.851   27.694    0.278    0.786 
 6831  464.957    3.743    3.241   34.851   27.694    0.255    0.786 
 6832  465.131    3.743    3.241   34.851   27.695    0.255    0.786 
 6834  465.304    3.742    3.241   34.852   27.695    0.255    0.786 
 6835  465.477    3.742    3.241   34.852   27.695    0.255    0.786 
 6837  465.651    3.741    3.241   34.853   27.696    0.231    0.786 
 6839  465.997    3.741    3.241   34.853   27.696    0.231    0.786 
 6841  466.171    3.740    3.241   34.853   27.696    0.231    0.786 
 6842  466.344    3.740    3.241   34.853   27.696    0.231    0.786 
 6843  466.517    3.740    3.241   34.853   27.696    0.231    0.786 
 6844  466.690    3.740    3.241   34.853   27.696    0.231    0.786 
 6846  466.864    3.740    3.241   34.853   27.696    0.231    0.786 
 6847  467.037    3.740    3.241   34.853   27.696    0.231    0.786 
 6848  467.210    3.740    3.241   34.853   27.696    0.231    0.786 
 6849  467.384    3.740    3.241   34.853   27.696    0.231    0.786 
 6851  467.557    3.740    3.241   34.853   27.696    0.231    0.786 
 6852  467.730    3.740    3.241   34.853   27.696    0.231    0.786 
 6854  467.904    3.739    3.241   34.853   27.696    0.231    0.784 
 6855  468.077    3.739    3.241   34.853   27.696    0.231    0.784 
 6857  468.250    3.738    3.241   34.853   27.696    0.231    0.784 
 6859  468.423    3.737    3.241   34.853   27.696    0.255    0.784 
 6860  468.597    3.737    3.241   34.853   27.696    0.255    0.784 
 6863  468.770    3.735    3.240   34.847   27.692    0.278    0.784 
 6866  468.943    3.735    3.240   34.846   27.692    0.301    0.784 
 6868  469.117    3.734    3.240   34.846   27.691    0.278    0.784 
 6870  469.290    3.734    3.240   34.846   27.691    0.301    0.784 
 6872  469.463    3.734    3.240   34.846   27.691    0.278    0.781 
 6875  469.637    3.734    3.240   34.846   27.691    0.278    0.781 
 6876  469.810    3.734    3.240   34.846   27.691    0.278    0.781 
 6878  469.983    3.734    3.240   34.846   27.691    0.278    0.781 
 6880  470.156    3.734    3.240   34.846   27.691    0.278    0.781 
 6882  470.330    3.734    3.240   34.846   27.691    0.255    0.781 
 6883  470.503    3.734    3.240   34.846   27.691    0.255    0.778 
 6885  470.676    3.734    3.240   34.846   27.691    0.255    0.781 
 6887  470.850    3.734    3.240   34.846   27.691    0.231    0.781 
 6888  471.023    3.734    3.240   34.846   27.691    0.255    0.781 
 6889  471.196    3.734    3.240   34.846   27.691    0.255    0.781 
 6891  471.370    3.734    3.240   34.846   27.691    0.255    0.781 
 6892  471.543    3.733    3.240   34.846   27.691    0.255    0.781 
 6893  471.716    3.733    3.240   34.846   27.691    0.255    0.781 
 6895  471.889    3.733    3.240   34.846   27.691    0.231    0.781 
 6896  472.063    3.733    3.240   34.846   27.691    0.231    0.784 
 6898  472.236    3.733    3.240   34.846   27.691    0.231    0.784 
 6899  472.409    3.733    3.240   34.846   27.691    0.231    0.784 
 6900  472.583    3.733    3.240   34.846   27.691    0.231    0.784 
 6901  472.756    3.733    3.240   34.846   27.691    0.231    0.784 
 6903  472.929    3.733    3.240   34.846   27.691    0.231    0.784 
 6905  473.103    3.733    3.240   34.846   27.691    0.255    0.784 
 6907  473.276    3.733    3.240   34.846   27.691    0.255    0.784 
 6908  473.449    3.733    3.240   34.846   27.691    0.255    0.784 
 6909  473.622    3.733    3.240   34.846   27.691    0.255    0.784 
 6912  473.796    3.733    3.240   34.846   27.691    0.255    0.784 
 6915  473.969    3.732    3.240   34.846   27.691    0.255    0.786 
 6917  474.142    3.732    3.240   34.846   27.691    0.255    0.786 
 6919  474.316    3.732    3.240   34.846   27.691    0.278    0.784 
 6922  474.489    3.732    3.240   34.845   27.691    0.278    0.784 
 6924  474.662    3.732    3.240   34.845   27.691    0.255    0.784 
 6928  474.835    3.732    3.240   34.845   27.691    0.255    0.781 
 6929  475.009    3.732    3.240   34.845   27.691    0.255    0.781 
 6932  475.182    3.732    3.240   34.846   27.691    0.255    0.781 
 6934  475.355    3.732    3.240   34.846   27.691    0.255    0.781 
 6936  475.529    3.732    3.240   34.846   27.691    0.255    0.781 
 6938  475.702    3.732    3.240   34.846   27.691    0.255    0.781 
 6941  475.875    3.732    3.240   34.846   27.691    0.255    0.781 
 6942  476.049    3.733    3.240   34.846   27.691    0.255    0.781 
 6946  476.222    3.733    3.240   34.846   27.691    0.255    0.784 
 6948  476.395    3.733    3.241   34.855   27.698    0.255    0.784 
 6950  476.568    3.733    3.241   34.855   27.698    0.255    0.784 
 6952  476.742    3.733    3.241   34.855   27.698    0.255    0.786 
 6953  476.915    3.733    3.241   34.855   27.698    0.255    0.786 
 6956  477.088    3.733    3.241   34.855   27.698    0.255    0.786 
 6958  477.262    3.733    3.241   34.855   27.698    0.255    0.786 
 6959  477.435    3.733    3.241   34.855   27.698    0.255    0.786 
 6962  477.608    3.733    3.241   34.855   27.698    0.255    0.786 
 6963  477.781    3.733    3.241   34.855   27.698    0.255    0.786 
 6965  477.955    3.733    3.241   34.855   27.698    0.278    0.786 
 6966  478.128    3.733    3.241   34.855   27.698    0.278    0.789 
 6968  478.301    3.733    3.241   34.855   27.698    0.255    0.789 
 6970  478.475    3.733    3.241   34.855   27.698    0.255    0.789 
 6971  478.648    3.733    3.241   34.854   27.698    0.255    0.792 
 6974  478.995    3.733    3.241   34.854   27.698    0.255    0.789 
 6976  479.168    3.733    3.241   34.854   27.698    0.255    0.789 
 6979  479.341    3.734    3.241   34.853   27.697    0.255    0.789 
 6980  479.514    3.734    3.241   34.853   27.697    0.255    0.789 
 6982  479.688    3.735    3.241   34.852   27.696    0.255    0.789 
 6984  479.861    3.735    3.241   34.852   27.696    0.255    0.789 
 6986  480.034    3.736    3.241   34.851   27.695    0.255    0.789 
 6988  480.208    3.736    3.241   34.850   27.695    0.255    0.786 
 6989  480.381    3.736    3.241   34.850   27.694    0.255    0.786 
 6990  480.554    3.736    3.241   34.850   27.694    0.255    0.786 
 6992  480.727    3.736    3.241   34.850   27.694    0.255    0.786 
 6993  480.901    3.736    3.241   34.850   27.694    0.278    0.786 
 6995  481.074    3.737    3.241   34.849   27.693    0.255    0.786 
 6998  481.247    3.737    3.241   34.849   27.693    0.278    0.786 
 6999  481.421    3.737    3.241   34.849   27.693    0.278    0.786 
 7001  481.594    3.737    3.241   34.849   27.693    0.278    0.786 
 7003  481.767    3.737    3.241   34.849   27.693    0.255    0.786 
 7004  481.940    3.737    3.241   34.849   27.693    0.255    0.786 
 7006  482.114    3.737    3.241   34.849   27.693    0.255    0.786 
 7009  482.287    3.737    3.241   34.849   27.693    0.255    0.784 
 7011  482.460    3.737    3.241   34.849   27.693    0.255    0.784 
 7012  482.634    3.737    3.241   34.849   27.693    0.255    0.784 
 7014  482.807    3.737    3.241   34.849   27.693    0.255    0.781 
 7016  482.980    3.736    3.241   34.848   27.693    0.255    0.781 
 7018  483.153    3.736    3.241   34.848   27.693    0.255    0.781 
 7020  483.327    3.736    3.241   34.848   27.693    0.255    0.781 
 7022  483.500    3.736    3.241   34.848   27.693    0.255    0.781 
 7024  483.673    3.736    3.241   34.848   27.693    0.324    0.781 
 7025  483.847    3.736    3.241   34.848   27.693    0.324    0.781 
 7028  484.020    3.736    3.241   34.848   27.693    0.324    0.781 
 7029  484.193    3.736    3.241   34.848   27.693    0.324    0.781 
 7031  484.366    3.736    3.241   34.848   27.693    0.255    0.781 
 7033  484.540    3.736    3.241   34.848   27.693    0.255    0.781 
 7035  484.713    3.736    3.241   34.848   27.693    0.255    0.781 
 7037  484.886    3.736    3.241   34.848   27.693    0.255    0.781 
 7038  485.060    3.736    3.241   34.848   27.693    0.255    0.781 
 7040  485.233    3.736    3.241   34.848   27.693    0.301    0.781 
 7042  485.406    3.736    3.241   34.848   27.693    0.255    0.781 
 7044  485.753    3.736    3.241   34.848   27.693    0.255    0.781 
 7046  485.926    3.736    3.241   34.848   27.693    0.255    0.781 
 7047  486.099    3.736    3.241   34.848   27.693    0.255    0.781 
 7050  486.273    3.737    3.241   34.848   27.693    0.255    0.781 
 7051  486.446    3.737    3.241   34.848   27.693    0.255    0.781 
 7053  486.619    3.737    3.241   34.848   27.693    0.231    0.781 
 7054  486.793    3.737    3.241   34.848   27.693    0.255    0.781 
 7056  486.966    3.737    3.241   34.848   27.693    0.301    0.781 
 7057  487.139    3.737    3.242   34.856   27.698    0.278    0.781 
 7060  487.312    3.737    3.242   34.856   27.698    0.255    0.781 
 7061  487.486    3.737    3.242   34.856   27.698    0.255    0.781 
 7063  487.659    3.737    3.242   34.856   27.698    0.231    0.781 
 7065  487.832    3.737    3.242   34.856   27.698    0.231    0.781 
 7067  488.005    3.737    3.242   34.856   27.698    0.255    0.778 
 7068  488.179    3.737    3.242   34.856   27.698    0.255    0.781 
 7070  488.352    3.737    3.242   34.856   27.698    0.255    0.781 
 7072  488.525    3.737    3.242   34.856   27.698    0.278    0.781 
 7074  488.872    3.737    3.242   34.856   27.698    0.278    0.781 
 7077  489.045    3.738    3.242   34.856   27.698    0.255    0.781 
 7078  489.218    3.738    3.242   34.855   27.698    0.255    0.784 
 7080  489.392    3.738    3.242   34.855   27.698    0.278    0.789 
 7082  489.565    3.738    3.242   34.855   27.698    0.278    0.789 
 7084  489.738    3.738    3.242   34.855   27.698    0.278    0.789 
 7085  489.912    3.738    3.242   34.855   27.698    0.278    0.792 
 7087  490.085    3.738    3.242   34.855   27.698    0.278    0.792 
 7089  490.258    3.738    3.242   34.855   27.698    0.278    0.795 
 7091  490.605    3.738    3.242   34.855   27.698    0.278    0.795 
 7093  490.778    3.738    3.242   34.855   27.698    0.278    0.795 
 7095  490.951    3.738    3.242   34.855   27.698    0.278    0.795 
 7097  491.125    3.738    3.242   34.854   27.698    0.278    0.795 
 7098  491.298    3.738    3.242   34.854   27.697    0.278    0.795 
 7100  491.471    3.738    3.242   34.854   27.697    0.278    0.792 
 7102  491.644    3.738    3.242   34.854   27.697    0.278    0.792 
 7104  491.818    3.738    3.242   34.854   27.697    0.278    0.789 
 7105  491.991    3.738    3.242   34.854   27.697    0.278    0.789 
 7107  492.164    3.738    3.242   34.854   27.697    0.278    0.786 
 7109  492.338    3.738    3.242   34.854   27.697    0.301    0.786 
 7113  492.511    3.738    3.242   34.854   27.697    0.278    0.775 
 7114  492.684    3.738    3.242   34.854   27.697    0.278    0.775 
 7117  492.857    3.739    3.242   34.852   27.696    0.301    0.775 
 7119  493.031    3.739    3.242   34.852   27.696    0.301    0.775 
 7121  493.204    3.739    3.242   34.852   27.696    0.255    0.775 
 7123  493.377    3.739    3.242   34.852   27.696    0.255    0.775 
 7126  493.551    3.739    3.242   34.852   27.696    0.255    0.781 
 7128  493.724    3.739    3.242   34.852   27.695    0.255    0.784 
 7130  493.897    3.739    3.242   34.852   27.695    0.255    0.786 
 7132  494.070    3.739    3.242   34.852   27.695    0.255    0.786 
 7134  494.244    3.739    3.242   34.852   27.695    0.255    0.786 
 7137  494.417    3.739    3.242   34.852   27.695    0.255    0.786 
 7138  494.590    3.739    3.242   34.852   27.695    0.255    0.786 
 7140  494.764    3.739    3.242   34.851   27.695    0.255    0.786 
 7141  494.937    3.739    3.242   34.851   27.695    0.255    0.786 
 7143  495.110    3.739    3.242   34.851   27.695    0.255    0.786 
 7145  495.457    3.739    3.242   34.851   27.695    0.255    0.786 
 7147  495.630    3.739    3.242   34.851   27.695    0.255    0.786 
 7148  495.803    3.739    3.242   34.851   27.695    0.255    0.789 
 7149  495.976    3.739    3.242   34.851   27.694    0.255    0.789 
 7151  496.150    3.739    3.242   34.851   27.694    0.255    0.789 
 7152  496.323    3.739    3.242   34.851   27.694    0.255    0.810 
 7153  496.496    3.740    3.242   34.850   27.693    0.255    0.816 
 7154  496.670    3.740    3.242   34.849   27.693    0.231    0.819 
 7156  496.843    3.740    3.242   34.849   27.693    0.231    0.819 
 7157  497.016    3.740    3.242   34.849   27.693    0.231    0.819 
 7158  497.189    3.740    3.242   34.849   27.693    0.231    0.819 
 7160  497.363    3.740    3.242   34.849   27.693    0.255    0.819 
 7162  497.536    3.740    3.242   34.849   27.693    0.231    0.822 
 7163  497.709    3.740    3.242   34.849   27.693    0.231    0.822 
 7164  497.883    3.740    3.242   34.849   27.693    0.255    0.822 
 7166  498.056    3.739    3.242   34.849   27.693    0.255    0.822 
 7168  498.229    3.740    3.242   34.849   27.693    0.255    0.819 
 7171  498.402    3.740    3.242   34.848   27.693    0.231    0.819 
 7174  498.576    3.740    3.242   34.848   27.692    0.255    0.816 
 7176  498.749    3.740    3.242   34.848   27.692    0.255    0.813 
 7178  498.922    3.740    3.242   34.848   27.692    0.255    0.813 
 7181  499.095    3.740    3.242   34.848   27.692    0.231    0.810 
 7183  499.442    3.740    3.242   34.848   27.692    0.255    0.810 
 7186  499.615    3.740    3.242   34.848   27.692    0.255    0.810 
 7188  499.789    3.740    3.242   34.848   27.692    0.255    0.807 
 7190  499.962    3.740    3.242   34.848   27.692    0.255    0.807 
 7192  500.135    3.740    3.242   34.848   27.692    0.255    0.807 
 7193  500.308    3.741    3.242   34.848   27.692    0.255    0.807 
 7195  500.482    3.741    3.242   34.848   27.692    0.255    0.804 
 7197  500.655    3.741    3.242   34.848   27.692    0.255    0.804 
 7199  500.828    3.741    3.243   34.848   27.692    0.255    0.801 
 7200  501.001    3.741    3.243   34.848   27.692    0.255    0.801 
 7202  501.175    3.741    3.243   34.848   27.692    0.255    0.798 
 7203  501.348    3.741    3.243   34.848   27.692    0.255    0.795 
 7205  501.521    3.741    3.243   34.848   27.692    0.255    0.795 
 7207  501.695    3.741    3.243   34.848   27.692    0.255    0.795 
 7210  501.868    3.741    3.243   34.857   27.700    0.255    0.795 
 7212  502.041    3.741    3.243   34.857   27.699    0.231    0.795 
 7214  502.214    3.740    3.243   34.858   27.700    0.255    0.792 
 7216  502.388    3.739    3.242   34.847   27.692    0.255    0.792 
 7220  502.561    3.739    3.242   34.847   27.692    0.255    0.792 
 7251  502.734    3.739    3.242   34.847   27.692    0.231    0.755 
 7255  502.907    3.739    3.242   34.847   27.692    0.231    0.755 
 7258  503.081    3.739    3.242   34.847   27.692    0.278    0.755 
 7259  503.254    3.739    3.242   34.847   27.691    0.255    0.755 
 7264  503.427    3.739    3.242   34.847   27.691    0.278    0.755 
 7268  503.601    3.739    3.242   34.847   27.691    0.278    0.761 
