NAFC_Y2K_HEADER
39673007  48 57.70 -048 50.89 2006-06-11 20:09 1966 S0281 007 V stn 7          1
39673007 002606  8.00 A 08 #PTCSMFL------------            D 000 0000 0480 000 4
39673007 9 18 19 45 1009.0 008.0 008.0 04 04 15 07 06                          8
-- CHANNEL STATS -->
# span     scan =   3036.000,  8005.000
# span     pres =      0.899,   480.208
# span     temp =      3.039,     7.027
# span     cond =      3.113,     3.461
# span      sal =     33.630,    34.857
# span     sigt =     26.468,    27.711
# span     flor =      0.278,     7.945
# span      par =      0.850,   260.250
-- END --
-- HISTORY --> Thu Jun 22 14:22:50 2006
>SELECT_PROBE S
>READ # (DP) T C L F scan pres temp cond par flor
>STABILIZE_RESTRICT USING= pres 10.0 5 
>RESTRICT USING= pres 0.0 2000.0
>RESTRICT USING= cond 2.0 5.0
>RESTRICT USING= temp -2.0 20.0
>RESTRICT USING= scan 500.0 30000.0
>MEDIANFILTER pres 21 1
>MEDIANFILTER temp 21 1
>MEDIANFILTER cond 21 1
>MEDIANFILTER flor 21 1
>MEDIANFILTER par 21 1
>SELECT_DN USING= pres
>SALINITY PRESSURE=pres CONDUCTIVITY=cond TEMPERATURE=temp RESULT=sal
>RESTRICT USING= sal 29.0 36.0
>MEDIANFILTER sal 21 1
>SIGMAT SALINITY=sal TEMPERATURE=temp RESULT=sigt
>MEDIANFILTER sigt 21 1
>HISTORY_ON
>WRITEFILE .p???? scan pres temp cond sal sigt flor par
-- END --
 scan     pres     temp     cond      sal     sigt     flor      par 
-- DATA --
 3036    0.899    6.011    3.317   33.641   26.477    4.878  249.880 
 3043    1.072    6.012    3.317   33.640   26.476    4.739  260.250 
 3045    1.246    6.013    3.317   33.638   26.475    4.739  248.040 
 3047    1.420    6.014    3.317   33.637   26.474    4.739  232.070 
 3048    1.593    6.014    3.317   33.637   26.474    4.739  224.470 
 3049    1.767    6.014    3.317   33.637   26.474    4.739  215.520 
 3050    1.941    6.017    3.317   33.634   26.471    4.739  205.410 
 3052    2.114    6.020    3.317   33.631   26.469    4.715  185.200 
 3053    2.288    6.020    3.317   33.631   26.469    4.692  174.560 
 3054    2.462    6.021    3.317   33.630   26.468    4.669  163.930 
 3055    2.635    6.021    3.318   33.638   26.474    4.669  154.510 
 3056    2.809    6.021    3.318   33.638   26.474    4.669  147.260 
 3057    2.982    6.022    3.318   33.638   26.474    4.646  142.440 
 3058    3.156    6.022    3.318   33.638   26.474    4.646  139.310 
 3059    3.330    6.022    3.318   33.638   26.474    4.646  136.260 
 3060    3.503    6.023    3.318   33.638   26.474    4.646  134.750 
 3061    3.677    6.023    3.318   33.638   26.474    4.669  132.770 
 3062    3.851    6.023    3.318   33.638   26.474    4.669  132.280 
 3064    4.024    6.023    3.318   33.638   26.474    4.669  131.310 
 3067    4.198    6.023    3.318   33.638   26.474    4.646  129.380 
 3079    4.372    6.024    3.318   33.638   26.474    4.599  128.430 
 3091    4.545    6.023    3.318   33.638   26.474    4.553  124.220 
 3092    4.719    6.023    3.318   33.638   26.474    4.553  123.310 
 3093    4.893    6.023    3.318   33.638   26.474    4.553  121.050 
 3095    5.066    6.023    3.318   33.638   26.474    4.506  116.660 
 3096    5.240    6.023    3.318   33.638   26.474    4.483  114.100 
 3097    5.414    6.023    3.318   33.638   26.473    4.483  111.590 
 3098    5.587    6.023    3.318   33.638   26.473    4.483  108.740 
 3099    5.761    6.023    3.318   33.637   26.473    4.460  106.350 
 3100    5.935    6.023    3.318   33.637   26.473    4.344  104.020 
 3101    6.108    6.023    3.318   33.637   26.473    4.251  101.360 
 3102    6.282    6.023    3.318   33.637   26.473    4.204   99.506 
 3103    6.456    6.023    3.318   33.637   26.473    4.204   98.045 
 3104    6.629    6.023    3.318   33.637   26.473    4.204   96.606 
 3106    6.803    6.023    3.318   33.637   26.473    4.158   93.790 
 3107    6.977    6.023    3.318   33.637   26.473    4.111   92.072 
 3108    7.150    6.023    3.318   33.637   26.473    4.111   90.720 
 3110    7.324    6.024    3.318   33.636   26.472    4.111   87.104 
 3111    7.497    6.024    3.318   33.636   26.472    4.088   86.143 
 3112    7.671    6.024    3.318   33.636   26.472    4.065   84.878 
 3114    7.845    6.024    3.318   33.636   26.472    4.065   82.100 
 3115    8.018    6.024    3.318   33.636   26.472    4.018   80.298 
 3117    8.192    6.025    3.318   33.636   26.472    3.995   77.383 
 3118    8.366    6.027    3.318   33.636   26.472    3.902   76.247 
 3119    8.539    6.027    3.318   33.636   26.472    3.856   75.406 
 3121    8.713    6.027    3.318   33.636   26.472    3.809   75.406 
 3122    8.887    6.027    3.318   33.636   26.472    3.809   75.406 
 3124    9.060    6.031    3.318   33.636   26.472    3.763   75.406 
 3125    9.234    6.033    3.319   33.637   26.472    3.740   75.406 
 3128    9.408    6.041    3.320   33.639   26.472    3.670   75.406 
 3129    9.581    6.041    3.320   33.639   26.472    3.647   75.406 
 3131    9.755    6.041    3.320   33.639   26.472    3.600   75.685 
 3134    9.929    6.041    3.320   33.639   26.472    3.577   75.685 
 3136   10.102    6.041    3.320   33.639   26.472    3.484   75.685 
 3139   10.276    6.042    3.320   33.639   26.472    3.438   75.685 
 3141   10.450    6.042    3.320   33.639   26.472    3.391   75.685 
 3143   10.623    6.042    3.320   33.639   26.472    3.368   74.574 
 3146   10.797    6.041    3.320   33.639   26.472    3.275   72.938 
 3149   11.144    6.041    3.320   33.639   26.472    3.228   71.867 
 3152   11.318    6.040    3.320   33.639   26.472    3.136   70.811 
 3153   11.491    6.040    3.320   33.639   26.472    3.136   70.550 
 3155   11.665    6.031    3.319   33.639   26.473    3.089   69.002 
 3156   11.839    6.031    3.319   33.639   26.473    3.066   68.494 
 3157   12.012    6.030    3.319   33.639   26.474    3.019   67.989 
 3159   12.186    6.025    3.318   33.639   26.474    2.857   67.239 
 3160   12.360    6.022    3.318   33.639   26.474    2.857   66.743 
 3161   12.533    6.021    3.318   33.639   26.475    2.834   66.252 
 3162   12.707    6.021    3.318   33.640   26.475    2.810   65.521 
 3163   12.881    6.019    3.318   33.640   26.475    2.810   64.559 
 3164   13.054    6.018    3.318   33.640   26.476    2.787   63.846 
 3165   13.228    6.017    3.318   33.640   26.476    2.764   63.142 
 3166   13.402    6.017    3.318   33.640   26.476    2.741   62.215 
 3168   13.749    6.003    3.317   33.641   26.479    2.625   60.401 
 3169   13.923    6.003    3.317   33.642   26.479    2.578   59.735 
 3171   14.096    6.003    3.317   33.642   26.479    2.462   58.209 
 3172   14.270    6.003    3.317   33.642   26.479    2.462   57.567 
 3173   14.443    6.003    3.317   33.642   26.479    2.462   56.931 
 3174   14.617    6.003    3.317   33.642   26.479    2.462   56.303 
 3175   14.791    6.003    3.317   33.642   26.479    2.439   55.682 
 3176   14.964    6.003    3.317   33.642   26.479    2.369   55.272 
 3178   15.138    6.003    3.317   33.642   26.479    2.346   54.460 
 3179   15.312    6.021    3.320   33.657   26.489    2.322   54.259 
 3181   15.485    6.029    3.322   33.670   26.496    2.322   53.860 
 3182   15.659    6.039    3.323   33.672   26.498    2.276   53.661 
 3184   15.833    6.064    3.325   33.673   26.499    2.253   53.463 
 3186   16.006    6.067    3.327   33.690   26.509    2.206   52.873 
 3189   16.180    6.096    3.331   33.701   26.514    2.183   52.678 
 3192   16.354    6.101    3.331   33.706   26.514    2.160   52.290 
 3195   16.527    6.105    3.332   33.707   26.514    2.137   51.904 
 3196   16.701    6.106    3.332   33.708   26.517    2.113   51.904 
 3199   16.875    6.159    3.337   33.710   26.518    2.090   51.332 
 3201   17.048    6.187    3.341   33.715   26.519    2.090   50.954 
 3203   17.222    6.189    3.342   33.727   26.522    2.090   50.391 
 3205   17.395    6.255    3.346   33.736   26.523    2.090   49.652 
 3206   17.569    6.268    3.351   33.758   26.538    2.113   49.104 
 3207   17.743    6.276    3.353   33.773   26.540    2.137   48.562 
 3208   17.916    6.328    3.358   33.777   26.545    2.137   48.204 
 3209   18.090    6.391    3.364   33.781   26.548    2.137   47.672 
 3211   18.437    6.655    3.400   33.913   26.607    2.137   46.454 
 3212   18.611    6.706    3.404   33.919   26.609    2.160   45.942 
 3213   18.785    6.707    3.409   33.924   26.611    2.299   45.435 
 3214   18.958    6.716    3.409   33.951   26.627    2.369   44.934 
 3215   19.132    6.723    3.409   33.958   26.631    2.369   44.438 
 3216   19.306    6.839    3.417   33.967   26.636    2.392   43.948 
 3217   19.479    6.928    3.436   34.046   26.677    2.415   43.463 
 3219   19.653    6.930    3.441   34.091   26.712    2.741   42.352 
 3220   19.826    6.934    3.441   34.094   26.713    2.810   41.576 
 3221   20.000    6.937    3.441   34.098   26.715    2.810   41.118 
 3222   20.174    7.003    3.448   34.103   26.717    2.810   40.664 
 3223   20.347    7.027    3.459   34.194   26.780    2.834   40.215 
 3224   20.521    7.027    3.460   34.195   26.781    2.903   39.772 
 3226   20.695    7.027    3.461   34.200   26.785    3.019   38.756 
 3228   20.868    7.027    3.461   34.203   26.788    3.019   38.187 
 3230   21.042    7.027    3.461   34.204   26.788    3.089   37.487 
 3233   21.389    7.027    3.461   34.204   26.788    3.136   36.937 
 3238   21.563    7.023    3.459   34.204   26.789    3.182   36.126 
 3240   21.737    7.022    3.459   34.206   26.791    3.159   35.860 
 3244   21.910    7.022    3.459   34.211   26.794    3.182   35.073 
 3246   22.084    7.022    3.459   34.215   26.798    3.182   34.558 
 3248   22.257    7.021    3.458   34.221   26.803    3.182   33.800 
 3250   22.605    7.020    3.458   34.221   26.803    3.205   32.936 
 3253   22.778    7.008    3.458   34.221   26.805    3.252   31.390 
 3255   23.126    6.999    3.458   34.221   26.806    3.252   30.363 
 3256   23.299    6.980    3.458   34.232   26.816    3.252   29.917 
 3257   23.473    6.963    3.457   34.234   26.821    3.252   29.478 
 3258   23.647    6.957    3.456   34.235   26.822    3.275   28.831 
 3259   23.820    6.951    3.456   34.239   26.826    3.275   28.303 
 3260   23.994    6.949    3.455   34.239   26.827    3.298   27.887 
 3262   24.341    6.941    3.455   34.239   26.828    3.322   26.776 
 3264   24.515    6.930    3.454   34.240   26.830    3.322   25.899 
 3265   24.688    6.929    3.454   34.240   26.830    3.322   25.613 
 3266   24.862    6.919    3.453   34.241   26.832    3.322   25.051 
 3267   25.036    6.908    3.453   34.250   26.841    3.345   24.684 
 3269   25.209    6.898    3.453   34.259   26.849    3.414   23.876 
 3270   25.383    6.898    3.453   34.259   26.849    3.438   23.525 
 3271   25.557    6.898    3.453   34.259   26.849    3.484   23.266 
 3273   25.730    6.898    3.453   34.259   26.849    3.484   22.755 
 3274   25.904    6.898    3.453   34.259   26.849    3.507   22.504 
 3276   26.078    6.898    3.453   34.260   26.849    3.507   22.010 
 3278   26.251    6.898    3.453   34.260   26.849    3.531   21.607 
 3279   26.425    6.898    3.453   34.260   26.850    3.531   21.369 
 3283   26.598    6.902    3.454   34.260   26.850    3.624   20.823 
 3287   26.772    6.904    3.454   34.260   26.850    3.647   20.291 
 3292   26.946    6.904    3.454   34.260   26.850    3.856   19.772 
 3296   27.119    6.904    3.454   34.259   26.850    3.925   19.267 
 3299   27.293    6.598    3.427   34.259   26.890    3.995   18.705 
 3301   27.467    6.575    3.425   34.259   26.893    4.018   18.295 
 3302   27.640    6.562    3.425   34.259   26.895    4.042   18.093 
 3305   27.988    6.463    3.414   34.259   26.908    4.018   17.308 
 3307   28.161    6.386    3.406   34.254   26.914    4.018   16.679 
 3308   28.335    6.361    3.404   34.254   26.917    4.018   16.374 
 3309   28.508    6.337    3.401   34.254   26.920    4.018   16.074 
 3310   28.682    6.317    3.400   34.254   26.922    4.042   15.779 
 3312   28.856    6.237    3.393   34.254   26.933    4.042   15.207 
 3313   29.203    6.237    3.393   34.254   26.933    4.042   14.928 
 3315   29.550    6.237    3.393   34.254   26.933    4.042   14.386 
 3316   29.724    6.237    3.393   34.254   26.933    4.042   14.070 
 3318   30.071    6.237    3.393   34.254   26.933    4.088   13.460 
 3319   30.245    6.237    3.393   34.254   26.933    4.297   13.213 
 3320   30.418    6.237    3.393   34.254   26.933    4.297   12.923 
 3322   30.592    6.237    3.393   34.254   26.933    4.460   12.454 
 3323   30.766    6.290    3.401   34.289   26.954    5.017   12.181 
 3324   30.939    6.313    3.404   34.298   26.958    5.319   11.958 
 3325   31.113    6.317    3.405   34.299   26.958    5.738   11.695 
 3326   31.287    6.347    3.407   34.306   26.960    5.831   11.481 
 3327   31.460    6.363    3.410   34.316   26.965    5.831   11.312 
 3329   31.634    6.374    3.412   34.327   26.973    6.016   10.983 
 3330   31.808    6.381    3.413   34.331   26.975    6.202   10.821 
 3332   31.981    6.382    3.415   34.347   26.988    6.249   10.545 
 3335   32.155    6.387    3.415   34.351   26.990    6.528   10.200 
 3336   32.328    6.387    3.416   34.352   26.991    6.551   10.087 
 3340   32.502    6.396    3.417   34.358   26.994    6.644    9.685 
 3341   32.676    6.405    3.417   34.359   26.994    6.713    9.614 
 3344   32.849    6.408    3.418   34.359   26.994    6.992    9.333 
 3347   33.023    6.414    3.419   34.360   26.995    7.318    8.962 
 3349   33.197    6.416    3.419   34.362   26.995    7.364    8.668 
 3351   33.370    6.419    3.419   34.363   26.995    7.434    8.415 
 3352   33.544    6.420    3.420   34.364   26.996    7.527    8.261 
 3354   33.718    6.422    3.420   34.367   26.998    7.596    7.991 
 3355   33.891    6.426    3.420   34.369   26.998    7.643    7.815 
 3357   34.065    6.438    3.422   34.371   26.999    7.712    7.532 
 3359   34.238    6.440    3.422   34.371   26.999    7.782    7.232 
 3360   34.412    6.445    3.423   34.373   26.999    7.805    7.073 
 3361   34.586    6.448    3.423   34.373   26.999    7.852    6.943 
 3362   34.759    6.451    3.423   34.373   27.000    7.922    6.816 
 3364   34.933    6.460    3.424   34.374   27.000    7.922    6.544 
 3366   35.107    6.470    3.425   34.377   27.000    7.945    6.307 
 3367   35.280    6.472    3.426   34.379   27.001    7.922    6.168 
 3369   35.627    6.475    3.426   34.379   27.001    7.922    5.923 
 3372   35.975    6.479    3.427   34.383   27.002    7.922    5.603 
 3374   36.148    6.486    3.427   34.386   27.003    7.852    5.420 
 3376   36.496    6.497    3.429   34.386   27.003    7.875    5.281 
 3378   36.669    6.501    3.429   34.386   27.003    7.875    5.127 
 3380   36.843    6.507    3.430   34.387   27.003    7.829    4.996 
 3382   37.017    6.522    3.431   34.390   27.003    7.782    4.869 
 3383   37.190    6.534    3.432   34.391   27.005    7.689    4.815 
 3384   37.364    6.538    3.434   34.404   27.012    7.527    4.744 
 3387   37.537    6.538    3.435   34.412   27.019    7.341    4.572 
 3389   37.711    6.538    3.435   34.413   27.019    7.201    4.455 
 3390   37.885    6.538    3.435   34.413   27.019    7.178    4.390 
 3393   38.058    6.538    3.435   34.413   27.019    7.015    4.199 
 3394   38.232    6.538    3.435   34.413   27.019    7.015    4.153 
 3395   38.406    6.534    3.435   34.414   27.020    7.015    4.077 
 3397   38.579    6.529    3.434   34.415   27.022    6.969    3.958 
 3398   38.753    6.529    3.434   34.415   27.022    6.946    3.900 
 3400   38.926    6.524    3.434   34.415   27.022    6.946    3.786 
 3401   39.100    6.520    3.434   34.415   27.023    6.899    3.730 
 3403   39.274    6.510    3.433   34.415   27.024    6.830    3.635 
 3404   39.447    6.506    3.432   34.415   27.025    6.806    3.582 
 3406   39.621    6.495    3.431   34.415   27.026    6.806    3.490 
 3407   39.795    6.490    3.431   34.415   27.027    6.760    3.439 
 3409   39.968    6.486    3.430   34.415   27.027    6.760    3.339 
 3411   40.142    6.483    3.430   34.416   27.027    6.760    3.266 
 3412   40.315    6.481    3.430   34.414   27.028    6.713    3.218 
 3414   40.489    6.478    3.430   34.414   27.028    6.713    3.147 
 3416   40.663    6.476    3.429   34.416   27.029    6.760    3.067 
 3418   40.836    6.472    3.429   34.414   27.029    6.760    3.022 
 3421   41.010    6.467    3.429   34.414   27.029    6.760    2.912 
 3423   41.184    6.460    3.428   34.414   27.030    6.760    2.869 
 3425   41.357    6.454    3.428   34.414   27.031    6.760    2.827 
 3427   41.531    6.450    3.427   34.416   27.033    6.760    2.786 
 3429   41.704    6.447    3.427   34.416   27.033    6.760    2.755 
 3432   41.878    6.436    3.426   34.416   27.035    6.737    2.684 
 3433   42.052    6.432    3.425   34.416   27.035    6.737    2.655 
 3436   42.225    6.422    3.424   34.414   27.035    6.551    2.606 
 3438   42.399    6.397    3.424   34.414   27.039    6.319    2.558 
 3439   42.573    6.385    3.421   34.414   27.040    6.179    2.539 
 3441   42.746    6.380    3.421   34.414   27.041    5.970    2.484 
 3442   42.920    6.372    3.421   34.414   27.042    5.645    2.466 
 3444   43.093    6.371    3.420   34.414   27.042    5.529    2.411 
 3445   43.267    6.364    3.420   34.414   27.043    5.529    2.402 
 3446   43.441    6.362    3.420   34.414   27.043    5.459    2.367 
 3447   43.614    6.360    3.419   34.414   27.043    5.436    2.341 
 3448   43.788    6.359    3.419   34.414   27.044    5.203    2.315 
 3450   43.962    6.348    3.418   34.415   27.046    5.110    2.264 
 3451   44.135    6.347    3.418   34.415   27.046    5.041    2.240 
 3452   44.309    6.338    3.417   34.415   27.046    5.041    2.215 
 3453   44.482    6.338    3.417   34.415   27.046    4.948    2.182 
 3454   44.656    6.338    3.417   34.414   27.047    4.924    2.158 
 3455   44.830    6.338    3.417   34.414   27.047    4.924    2.134 
 3457   45.177    6.319    3.416   34.414   27.049    4.924    2.080 
 3459   45.351    6.216    3.407   34.413   27.062    4.924    2.049 
 3460   45.524    6.181    3.404   34.413   27.066    4.924    2.019 
 3462   45.698    6.091    3.395   34.413   27.077    4.948    1.982 
 3463   45.871    6.047    3.392   34.413   27.083    5.087    1.975 
 3464   46.045    5.971    3.386   34.412   27.092    5.110    1.960 
 3467   46.219    5.830    3.370   34.411   27.104    5.227    1.917 
 3468   46.392    5.784    3.367   34.398   27.108    5.227    1.903 
 3470   46.566    5.723    3.360   34.394   27.108    5.296    1.875 
 3472   46.740    5.679    3.356   34.393   27.109    5.389    1.862 
 3476   46.913    5.632    3.349   34.379   27.109    5.436    1.821 
 3479   47.087    5.594    3.347   34.377   27.111    5.784    1.801 
 3481   47.260    5.581    3.346   34.373   27.113    5.947    1.774 
 3484   47.434    5.449    3.333   34.366   27.120    6.086    1.761 
 3486   47.608    5.405    3.329   34.365   27.124    6.086    1.742 
 3488   47.781    5.142    3.305   34.361   27.152    6.086    1.716 
 3490   47.955    5.095    3.300   34.359   27.156    6.086    1.697 
 3491   48.129    5.016    3.295   34.350   27.158    5.993    1.691 
 3493   48.302    4.932    3.284   34.340   27.158    5.854    1.660 
 3494   48.476    4.891    3.281   34.332   27.158    5.784    1.660 
 3496   48.649    4.820    3.273   34.322   27.158    5.668    1.623 
 3497   48.823    4.806    3.271   34.320   27.158    5.529    1.600 
 3498   48.997    4.803    3.271   34.319   27.159    5.436    1.600 
 3500   49.170    4.777    3.269   34.318   27.160    5.250    1.576 
 3501   49.344    4.771    3.268   34.318   27.160    5.203    1.564 
 3502   49.518    4.760    3.267   34.314   27.160    5.203    1.553 
 3503   49.691    4.715    3.263   34.314   27.161    4.994    1.541 
 3505   49.865    4.674    3.260   34.312   27.164    4.715    1.513 
 3506   50.038    4.592    3.253   34.312   27.165    4.715    1.508 
 3507   50.212    4.552    3.248   34.312   27.167    4.715    1.497 
 3509   50.559    4.539    3.245   34.311   27.176    4.692    1.480 
 3511   50.733    4.539    3.245   34.305   27.176    4.622    1.458 
 3512   50.906    4.537    3.244   34.291   27.180    4.622    1.458 
 3513   51.080    4.520    3.244   34.283   27.181    4.553    1.453 
 3515   51.254    4.300    3.227   34.283   27.183    4.320    1.432 
 3516   51.427    4.283    3.222   34.279   27.185    4.320    1.432 
 3518   51.601    4.211    3.219   34.273   27.186    4.227    1.411 
 3521   51.775    4.058    3.200   34.268   27.198    4.135    1.395 
 3522   51.948    4.045    3.200   34.267   27.198    4.111    1.390 
 3525   52.122    4.030    3.198   34.266   27.199    4.065    1.385 
 3527   52.295    4.024    3.198   34.265   27.200    3.902    1.375 
 3531   52.469    4.009    3.197   34.264   27.200    3.786    1.370 
 3534   52.643    3.999    3.196   34.264   27.201    3.740    1.364 
 3538   52.816    3.966    3.192   34.260   27.201    3.275    1.349 
 3539   52.990    3.966    3.192   34.260   27.201    3.182    1.349 
 3542   53.164    3.922    3.189   34.260   27.205    2.903    1.344 
 3544   53.337    3.884    3.185   34.260   27.209    2.810    1.334 
 3546   53.511    3.873    3.184   34.259   27.210    2.810    1.325 
 3547   53.684    3.869    3.184   34.260   27.211    2.787    1.325 
 3549   53.858    3.855    3.182   34.260   27.212    2.625    1.315 
 3550   54.032    3.838    3.181   34.260   27.214    2.625    1.310 
 3552   54.205    3.816    3.179   34.260   27.217    2.439    1.300 
 3553   54.379    3.784    3.177   34.260   27.220    2.415    1.296 
 3554   54.552    3.754    3.174   34.260   27.223    2.392    1.291 
 3555   54.726    3.744    3.173   34.260   27.224    2.276    1.286 
 3556   54.900    3.731    3.172   34.262   27.226    2.253    1.286 
 3557   55.073    3.707    3.170   34.262   27.229    2.230    1.277 
 3558   55.247    3.689    3.168   34.263   27.232    2.183    1.272 
 3559   55.421    3.673    3.168   34.265   27.234    2.183    1.272 
 3560   55.594    3.671    3.167   34.268   27.237    2.160    1.267 
 3562   55.768    3.661    3.167   34.273   27.242    2.137    1.263 
 3563   56.115    3.655    3.166   34.273   27.243    2.113    1.263 
 3565   56.289    3.635    3.165   34.274   27.245    1.974    1.249 
 3566   56.462    3.581    3.162   34.275   27.252    1.974    1.244 
 3567   56.636    3.530    3.159   34.277   27.258    1.951    1.244 
 3568   56.809    3.490    3.155   34.277   27.262    1.951    1.239 
 3570   56.983    3.404    3.147   34.277   27.270    1.928    1.230 
 3572   57.157    3.310    3.140   34.277   27.279    1.904    1.226 
 3573   57.330    3.269    3.135   34.277   27.283    1.881    1.226 
 3574   57.504    3.240    3.132   34.277   27.286    1.881    1.221 
 3577   57.851    3.168    3.125   34.277   27.293    1.765    1.217 
 3581   58.025    3.112    3.119   34.277   27.298    1.672    1.212 
 3582   58.198    3.102    3.119   34.277   27.299    1.672    1.208 
 3584   58.372    3.087    3.117   34.277   27.300    1.649    1.208 
 3588   58.719    3.072    3.116   34.277   27.302    1.625    1.203 
 3592   58.893    3.058    3.114   34.277   27.303    1.602    1.194 
 3595   59.066    3.043    3.113   34.277   27.304    1.602    1.194 
 3597   59.240    3.039    3.113   34.277   27.304    1.533    1.194 
 3599   59.414    3.039    3.113   34.277   27.304    1.533    1.190 
 3601   59.587    3.039    3.113   34.277   27.304    1.463    1.190 
 3603   59.761    3.039    3.113   34.277   27.305    1.416    1.186 
 3604   59.935    3.039    3.113   34.277   27.305    1.370    1.186 
 3608   60.108    3.043    3.113   34.279   27.305    1.254    1.177 
 3609   60.282    3.044    3.113   34.279   27.305    1.207    1.177 
 3611   60.455    3.072    3.117   34.280   27.305    1.161    1.173 
 3613   60.629    3.079    3.117   34.281   27.305    1.091    1.173 
 3615   60.803    3.093    3.119   34.283   27.306    1.045    1.168 
 3616   60.976    3.103    3.119   34.286   27.306    1.045    1.168 
 3618   61.150    3.127    3.121   34.290   27.307    1.045    1.164 
 3619   61.323    3.133    3.123   34.292   27.308    1.021    1.160 
 3621   61.497    3.136    3.123   34.294   27.309    0.998    1.160 
 3623   61.671    3.136    3.124   34.296   27.310    0.975    1.155 
 3624   61.844    3.138    3.124   34.297   27.311    0.975    1.155 
 3625   62.018    3.138    3.124   34.298   27.312    0.975    1.155 
 3627   62.191    3.145    3.124   34.304   27.316    0.952    1.151 
 3628   62.365    3.146    3.124   34.304   27.316    0.975    1.147 
 3629   62.539    3.155    3.124   34.307   27.317    0.952    1.147 
 3631   62.712    3.173    3.129   34.327   27.332    0.905    1.147 
 3632   62.886    3.176    3.130   34.334   27.337    0.905    1.147 
 3633   63.060    3.177    3.130   34.335   27.338    0.905    1.147 
 3635   63.233    3.178    3.130   34.336   27.339    0.905    1.138 
 3636   63.407    3.184    3.131   34.340   27.341    0.905    1.138 
 3637   63.580    3.192    3.132   34.343   27.343    0.905    1.138 
 3639   63.754    3.199    3.133   34.345   27.344    0.905    1.134 
 3640   63.928    3.201    3.133   34.346   27.344    0.905    1.134 
 3641   64.101    3.201    3.133   34.348   27.346    0.905    1.134 
 3642   64.275    3.202    3.134   34.350   27.348    0.905    1.130 
 3644   64.448    3.207    3.134   34.351   27.348    0.905    1.130 
 3645   64.622    3.208    3.134   34.355   27.351    0.905    1.130 
 3647   64.796    3.212    3.135   34.355   27.351    0.905    1.130 
 3648   64.969    3.212    3.135   34.356   27.352    0.905    1.126 
 3651   65.143    3.214    3.135   34.358   27.353    0.928    1.122 
 3652   65.316    3.214    3.135   34.358   27.353    0.928    1.122 
 3655   65.490    3.217    3.136   34.360   27.354    0.928    1.122 
 3656   65.664    3.218    3.136   34.360   27.354    0.928    1.122 
 3660   65.837    3.218    3.136   34.360   27.354    0.952    1.117 
 3663   66.011    3.219    3.136   34.360   27.354    0.928    1.117 
 3665   66.184    3.219    3.136   34.361   27.355    0.928    1.113 
 3667   66.358    3.219    3.136   34.361   27.355    0.928    1.113 
 3669   66.532    3.219    3.136   34.362   27.355    0.928    1.113 
 3671   66.705    3.220    3.136   34.362   27.355    0.928    1.113 
 3673   66.879    3.220    3.136   34.363   27.356    0.905    1.109 
 3674   67.052    3.220    3.136   34.363   27.356    0.905    1.109 
 3676   67.226    3.220    3.136   34.364   27.357    0.905    1.109 
 3678   67.573    3.227    3.137   34.364   27.357    0.905    1.109 
 3679   67.747    3.227    3.138   34.376   27.366    0.905    1.105 
 3680   67.921    3.227    3.138   34.376   27.366    0.905    1.105 
 3682   68.094    3.227    3.138   34.376   27.366    0.905    1.105 
 3683   68.268    3.227    3.139   34.388   27.375    0.905    1.105 
 3684   68.615    3.227    3.139   34.388   27.376    0.905    1.101 
 3686   68.789    3.227    3.139   34.388   27.376    0.905    1.101 
 3687   68.962    3.227    3.139   34.388   27.376    0.905    1.101 
 3689   69.309    3.227    3.139   34.388   27.376    0.905    1.097 
 3692   69.657    3.221    3.139   34.394   27.381    0.905    1.097 
 3693   69.830    3.219    3.139   34.396   27.383    0.905    1.097 
 3694   70.004    3.216    3.139   34.397   27.384    0.882    1.097 
 3696   70.177    3.213    3.139   34.398   27.385    0.882    1.093 
 3698   70.351    3.206    3.138   34.399   27.386    0.882    1.093 
 3699   70.525    3.205    3.138   34.400   27.388    0.882    1.093 
 3701   70.698    3.203    3.138   34.402   27.389    0.882    1.089 
 3703   70.872    3.193    3.138   34.411   27.397    0.882    1.089 
 3706   71.045    3.179    3.138   34.426   27.410    0.882    1.089 
 3708   71.219    3.171    3.138   34.434   27.417    0.882    1.085 
 3711   71.393    3.171    3.138   34.434   27.417    0.836    1.085 
 3713   71.566    3.171    3.138   34.434   27.418    0.859    1.085 
 3715   71.740    3.171    3.138   34.434   27.418    0.882    1.085 
 3718   71.913    3.172    3.139   34.439   27.422    0.836    1.085 
 3720   72.087    3.177    3.139   34.445   27.426    0.836    1.085 
 3722   72.261    3.179    3.140   34.447   27.427    0.812    1.081 
 3723   72.434    3.179    3.140   34.448   27.428    0.812    1.081 
 3725   72.608    3.180    3.140   34.448   27.428    0.812    1.081 
 3727   72.781    3.180    3.140   34.448   27.428    0.812    1.077 
 3729   72.955    3.180    3.140   34.448   27.428    0.812    1.077 
 3730   73.129    3.180    3.140   34.448   27.428    0.812    1.077 
 3733   73.302    3.180    3.140   34.449   27.429    0.812    1.077 
 3735   73.476    3.181    3.140   34.449   27.429    0.812    1.077 
 3738   73.649    3.182    3.141   34.454   27.433    0.812    1.073 
 3739   73.823    3.182    3.141   34.457   27.434    0.812    1.073 
 3741   73.997    3.182    3.141   34.457   27.435    0.812    1.073 
 3744   74.170    3.182    3.141   34.457   27.435    0.812    1.073 
 3745   74.344    3.182    3.141   34.457   27.435    0.812    1.073 
 3747   74.517    3.196    3.142   34.458   27.435    0.766    1.073 
 3750   74.691    3.196    3.144   34.478   27.450    0.766    1.073 
 3751   74.865    3.196    3.144   34.478   27.450    0.766    1.073 
 3753   75.038    3.196    3.144   34.478   27.450    0.766    1.073 
 3754   75.212    3.196    3.144   34.478   27.451    0.766    1.073 
 3755   75.385    3.196    3.144   34.478   27.451    0.766    1.069 
 3756   75.559    3.196    3.144   34.478   27.451    0.743    1.073 
 3758   75.733    3.194    3.145   34.492   27.461    0.766    1.073 
 3759   75.906    3.194    3.145   34.492   27.461    0.743    1.069 
 3760   76.080    3.194    3.145   34.492   27.462    0.743    1.073 
 3761   76.253    3.194    3.145   34.492   27.462    0.719    1.073 
 3762   76.427    3.194    3.145   34.492   27.462    0.719    1.073 
 3763   76.601    3.194    3.145   34.492   27.462    0.719    1.073 
 3764   76.774    3.194    3.145   34.492   27.462    0.719    1.073 
 3765   76.948    3.193    3.145   34.492   27.462    0.719    1.073 
 3766   77.121    3.193    3.145   34.492   27.462    0.719    1.073 
 3768   77.295    3.193    3.145   34.492   27.462    0.719    1.073 
 3769   77.469    3.193    3.145   34.492   27.462    0.719    1.073 
 3770   77.642    3.193    3.145   34.492   27.462    0.719    1.073 
 3772   77.989    3.193    3.145   34.492   27.462    0.719    1.073 
 3775   78.163    3.193    3.145   34.492   27.462    0.719    1.077 
 3776   78.337    3.193    3.145   34.492   27.462    0.719    1.077 
 3778   78.510    3.193    3.145   34.493   27.462    0.696    1.077 
 3781   78.684    3.191    3.145   34.494   27.463    0.719    1.077 
 3785   78.857    3.190    3.145   34.495   27.463    0.719    1.081 
 3790   79.031    3.189    3.145   34.496   27.464    0.696    1.081 
 3795   79.205    3.189    3.146   34.498   27.465    0.673    1.081 
 3797   79.378    3.189    3.146   34.507   27.467    0.673    1.081 
 3800   79.552    3.189    3.146   34.507   27.468    0.673    1.081 
 3802   79.725    3.189    3.146   34.507   27.469    0.673    1.081 
 3803   79.899    3.189    3.146   34.508   27.470    0.673    1.081 
 3805   80.073    3.189    3.146   34.508   27.474    0.673    1.085 
 3808   80.420    3.245    3.151   34.508   27.474    0.650    1.113 
 3809   80.593    3.264    3.153   34.508   27.474    0.627    1.126 
 3811   80.767    3.368    3.161   34.512   27.474    0.627    1.126 
 3812   81.114    3.408    3.167   34.528   27.475    0.627    1.126 
 3814   81.288    3.453    3.172   34.540   27.475    0.627    1.130 
 3815   81.461    3.470    3.174   34.541   27.475    0.627    1.130 
 3816   81.635    3.473    3.174   34.543   27.475    0.627    1.130 
 3817   81.809    3.486    3.175   34.546   27.477    0.627    1.130 
 3818   81.982    3.491    3.176   34.547   27.477    0.627    1.130 
 3819   82.156    3.492    3.177   34.555   27.483    0.650    1.130 
 3820   82.329    3.493    3.177   34.555   27.483    0.650    1.130 
 3821   82.503    3.494    3.177   34.555   27.484    0.650    1.130 
 3822   82.677    3.494    3.177   34.555   27.484    0.650    1.126 
 3823   82.850    3.494    3.177   34.555   27.484    0.650    1.126 
 3824   83.024    3.494    3.177   34.556   27.484    0.650    1.126 
 3825   83.197    3.494    3.177   34.556   27.484    0.650    1.122 
 3826   83.371    3.494    3.177   34.556   27.484    0.650    1.122 
 3827   83.545    3.494    3.177   34.556   27.484    0.650    1.122 
 3828   83.718    3.494    3.177   34.556   27.484    0.650    1.122 
 3830   83.892    3.494    3.177   34.557   27.485    0.650    1.122 
 3831   84.065    3.494    3.177   34.557   27.485    0.673    1.122 
 3833   84.239    3.470    3.176   34.565   27.494    0.696    1.117 
 3835   84.413    3.461    3.176   34.568   27.497    0.673    1.117 
 3838   84.586    3.461    3.176   34.568   27.497    0.673    1.117 
 3845   84.760    3.459    3.175   34.568   27.497    0.673    1.113 
 3853   84.933    3.455    3.175   34.572   27.501    0.673    1.113 
 3855   85.107    3.452    3.175   34.575   27.503    0.673    1.113 
 3858   85.280    3.450    3.174   34.577   27.505    0.673    1.109 
 3859   85.454    3.447    3.174   34.578   27.506    0.673    1.109 
 3860   85.628    3.439    3.174   34.578   27.507    0.673    1.109 
 3861   85.801    3.432    3.174   34.583   27.512    0.673    1.109 
 3863   86.148    3.432    3.174   34.583   27.512    0.650    1.109 
 3864   86.322    3.432    3.174   34.584   27.512    0.650    1.109 
 3865   86.496    3.432    3.174   34.584   27.512    0.650    1.109 
 3866   86.669    3.432    3.174   34.584   27.512    0.650    1.109 
 3867   86.843    3.432    3.174   34.584   27.512    0.650    1.109 
 3868   87.016    3.431    3.174   34.584   27.512    0.650    1.109 
 3869   87.364    3.431    3.174   34.584   27.512    0.650    1.109 
 3870   87.537    3.431    3.174   34.584   27.512    0.650    1.109 
 3871   87.711    3.431    3.174   34.584   27.512    0.650    1.109 
 3872   87.884    3.430    3.174   34.584   27.513    0.650    1.109 
 3873   88.232    3.428    3.174   34.584   27.513    0.650    1.109 
 3875   88.579    3.425    3.174   34.585   27.514    0.627    1.109 
 3877   88.752    3.423    3.174   34.587   27.516    0.627    1.109 
 3878   88.926    3.422    3.173   34.588   27.516    0.627    1.109 
 3879   89.100    3.421    3.173   34.588   27.517    0.627    1.109 
 3880   89.273    3.411    3.173   34.590   27.519    0.627    1.109 
 3882   89.447    3.381    3.170   34.592   27.524    0.603    1.105 
 3884   89.620    3.381    3.170   34.592   27.524    0.603    1.105 
 3907   89.794    3.331    3.167   34.605   27.539    0.580    1.097 
 3910   90.141    3.326    3.167   34.610   27.543    0.580    1.097 
 3912   90.315    3.325    3.167   34.611   27.544    0.557    1.093 
 3913   90.488    3.324    3.167   34.612   27.545    0.557    1.093 
 3914   90.662    3.323    3.167   34.613   27.546    0.557    1.093 
 3915   90.835    3.323    3.167   34.613   27.546    0.557    1.093 
 3916   91.009    3.323    3.167   34.613   27.546    0.557    1.093 
 3917   91.183    3.322    3.167   34.614   27.547    0.557    1.093 
 3918   91.356    3.321    3.167   34.615   27.547    0.557    1.093 
 3919   91.530    3.319    3.167   34.617   27.549    0.557    1.093 
 3921   91.877    3.318    3.167   34.618   27.550    0.534    1.093 
 3922   92.051    3.316    3.167   34.620   27.552    0.534    1.089 
 3923   92.224    3.315    3.167   34.621   27.553    0.534    1.089 
 3924   92.398    3.315    3.167   34.621   27.553    0.534    1.089 
 3925   92.571    3.315    3.168   34.632   27.562    0.534    1.089 
 3926   92.745    3.315    3.168   34.632   27.562    0.534    1.089 
 3927   92.918    3.315    3.168   34.632   27.562    0.534    1.085 
 3929   93.092    3.315    3.168   34.632   27.562    0.534    1.085 
 3930   93.266    3.315    3.168   34.632   27.562    0.534    1.085 
 3931   93.439    3.315    3.168   34.633   27.562    0.534    1.085 
 3932   93.613    3.314    3.168   34.633   27.563    0.534    1.085 
 3933   93.786    3.314    3.168   34.633   27.563    0.534    1.081 
 3935   93.960    3.313    3.168   34.633   27.563    0.534    1.081 
 3937   94.134    3.313    3.168   34.633   27.563    0.534    1.081 
 3939   94.307    3.313    3.168   34.633   27.563    0.534    1.081 
 3941   94.481    3.313    3.168   34.633   27.563    0.510    1.081 
 3945   94.654    3.312    3.168   34.633   27.563    0.487    1.077 
 3948   94.828    3.312    3.168   34.633   27.563    0.487    1.077 
 3952   95.001    3.312    3.168   34.633   27.563    0.510    1.077 
 3956   95.175    3.311    3.168   34.633   27.563    0.487    1.077 
 3958   95.349    3.311    3.168   34.633   27.563    0.487    1.077 
 3960   95.522    3.310    3.168   34.633   27.563    0.510    1.077 
 3962   95.696    3.310    3.167   34.628   27.560    0.510    1.077 
 3963   95.869    3.309    3.167   34.628   27.560    0.510    1.073 
 3965   96.043    3.308    3.167   34.628   27.560    0.534    1.073 
 3966   96.217    3.308    3.167   34.628   27.560    0.534    1.073 
 3968   96.564    3.308    3.167   34.628   27.560    0.534    1.069 
 3970   96.737    3.308    3.167   34.628   27.560    0.534    1.069 
 3971   96.911    3.308    3.167   34.628   27.560    0.534    1.069 
 3972   97.085    3.307    3.167   34.628   27.560    0.534    1.069 
 3974   97.258    3.306    3.167   34.628   27.560    0.534    1.069 
 3975   97.432    3.305    3.167   34.628   27.560    0.534    1.069 
 3976   97.605    3.305    3.167   34.628   27.560    0.534    1.069 
 3977   97.779    3.305    3.167   34.628   27.560    0.510    1.065 
 3978   97.952    3.305    3.167   34.628   27.560    0.534    1.065 
 3979   98.126    3.305    3.167   34.628   27.560    0.534    1.065 
 3980   98.300    3.305    3.167   34.628   27.560    0.510    1.065 
 3982   98.473    3.305    3.167   34.628   27.560    0.510    1.065 
 3983   98.647    3.305    3.167   34.628   27.560    0.510    1.065 
 3984   98.820    3.305    3.167   34.628   27.560    0.487    1.065 
 3985   98.994    3.305    3.167   34.628   27.560    0.487    1.065 
 3986   99.168    3.305    3.167   34.628   27.560    0.487    1.061 
 3988   99.341    3.305    3.168   34.631   27.562    0.464    1.061 
 3989   99.515    3.306    3.168   34.632   27.563    0.464    1.061 
 3991   99.688    3.308    3.168   34.632   27.563    0.464    1.061 
 3993   99.862    3.308    3.168   34.632   27.563    0.487    1.061 
 3994  100.035    3.309    3.168   34.634   27.564    0.464    1.061 
 3996  100.209    3.310    3.168   34.634   27.564    0.464    1.061 
 3999  100.383    3.310    3.168   34.635   27.565    0.464    1.061 
 4001  100.556    3.311    3.168   34.636   27.565    0.464    1.061 
 4003  100.730    3.311    3.168   34.636   27.566    0.487    1.057 
 4007  100.903    3.311    3.168   34.638   27.567    0.487    1.057 
 4011  101.077    3.312    3.168   34.640   27.568    0.487    1.057 
 4014  101.250    3.312    3.169   34.640   27.569    0.487    1.053 
 4017  101.424    3.313    3.169   34.640   27.569    0.487    1.053 
 4019  101.598    3.313    3.169   34.640   27.569    0.487    1.053 
 4023  101.771    3.314    3.169   34.641   27.569    0.487    1.053 
 4024  101.945    3.314    3.169   34.641   27.569    0.487    1.053 
 4026  102.118    3.314    3.169   34.641   27.569    0.487    1.049 
 4029  102.292    3.314    3.169   34.642   27.570    0.487    1.049 
 4031  102.466    3.314    3.169   34.642   27.570    0.487    1.049 
 4032  102.639    3.313    3.169   34.643   27.571    0.487    1.049 
 4034  102.813    3.311    3.169   34.643   27.571    0.464    1.049 
 4036  102.986    3.303    3.169   34.652   27.579    0.487    1.046 
 4037  103.160    3.299    3.169   34.654   27.581    0.487    1.046 
 4039  103.333    3.289    3.168   34.656   27.583    0.464    1.046 
 4040  103.507    3.287    3.168   34.656   27.584    0.441    1.046 
 4041  103.681    3.286    3.168   34.657   27.585    0.441    1.046 
 4043  104.028    3.286    3.168   34.657   27.585    0.441    1.046 
 4046  104.201    3.286    3.168   34.657   27.585    0.441    1.046 
 4047  104.375    3.286    3.168   34.657   27.585    0.487    1.046 
 4049  104.549    3.286    3.168   34.657   27.585    0.441    1.042 
 4050  104.722    3.285    3.168   34.658   27.585    0.464    1.042 
 4052  104.896    3.285    3.168   34.658   27.585    0.487    1.042 
 4053  105.069    3.285    3.168   34.658   27.585    0.534    1.042 
 4055  105.243    3.284    3.168   34.658   27.585    0.534    1.042 
 4057  105.416    3.284    3.168   34.658   27.585    0.510    1.042 
 4060  105.590    3.284    3.168   34.658   27.585    0.510    1.042 
 4061  105.764    3.284    3.168   34.658   27.585    0.510    1.042 
 4064  105.937    3.284    3.168   34.658   27.585    0.487    1.038 
 4065  106.111    3.284    3.168   34.658   27.585    0.487    1.038 
 4068  106.284    3.284    3.168   34.658   27.585    0.487    1.038 
 4070  106.458    3.283    3.168   34.658   27.585    0.510    1.038 
 4072  106.631    3.282    3.168   34.658   27.585    0.487    1.038 
 4073  106.805    3.282    3.168   34.658   27.585    0.487    1.038 
 4076  106.979    3.281    3.167   34.650   27.579    0.487    1.038 
 4077  107.152    3.281    3.167   34.650   27.579    0.487    1.038 
 4078  107.326    3.280    3.167   34.650   27.579    0.464    1.038 
 4080  107.499    3.280    3.167   34.650   27.579    0.464    1.038 
 4081  107.673    3.280    3.167   34.650   27.579    0.464    1.038 
 4082  107.846    3.280    3.167   34.650   27.579    0.464    1.034 
 4084  108.020    3.280    3.167   34.650   27.579    0.464    1.034 
 4085  108.194    3.280    3.167   34.650   27.579    0.464    1.034 
 4086  108.367    3.280    3.167   34.650   27.579    0.464    1.034 
 4088  108.714    3.280    3.167   34.650   27.579    0.464    1.034 
 4090  109.061    3.280    3.167   34.650   27.579    0.441    1.030 
 4092  109.235    3.280    3.168   34.657   27.585    0.441    1.030 
 4093  109.409    3.281    3.168   34.657   27.585    0.441    1.030 
 4094  109.582    3.281    3.168   34.657   27.585    0.441    1.026 
 4095  109.756    3.281    3.168   34.657   27.585    0.441    1.026 
 4096  109.929    3.281    3.168   34.657   27.585    0.441    1.026 
 4097  110.103    3.281    3.168   34.657   27.585    0.441    1.026 
 4100  110.277    3.283    3.168   34.659   27.587    0.441    1.023 
 4101  110.450    3.283    3.168   34.659   27.587    0.441    1.023 
 4102  110.624    3.283    3.168   34.659   27.587    0.441    1.023 
 4105  110.797    3.283    3.168   34.660   27.587    0.441    1.023 
 4108  110.971    3.283    3.168   34.660   27.587    0.441    1.023 
 4116  111.144    3.284    3.168   34.660   27.587    0.441    1.026 
 4120  111.318    3.284    3.169   34.660   27.587    0.417    1.026 
 4124  111.492    3.284    3.169   34.662   27.589    0.441    1.026 
 4126  111.665    3.285    3.169   34.662   27.589    0.441    1.023 
 4128  111.839    3.285    3.169   34.664   27.590    0.441    1.023 
 4129  112.012    3.285    3.169   34.666   27.592    0.441    1.023 
 4130  112.186    3.285    3.169   34.666   27.592    0.441    1.023 
 4132  112.533    3.287    3.169   34.666   27.592    0.441    1.023 
 4133  112.707    3.288    3.169   34.666   27.592    0.441    1.023 
 4134  112.880    3.288    3.169   34.666   27.592    0.441    1.023 
 4136  113.054    3.290    3.169   34.666   27.592    0.441    1.023 
 4137  113.401    3.291    3.170   34.667   27.592    0.441    1.023 
 4138  113.574    3.291    3.170   34.667   27.592    0.464    1.023 
 4139  113.748    3.292    3.170   34.668   27.593    0.441    1.023 
 4140  113.922    3.292    3.170   34.669   27.594    0.464    1.023 
 4141  114.095    3.292    3.170   34.669   27.594    0.441    1.023 
 4142  114.269    3.292    3.170   34.669   27.594    0.441    1.023 
 4143  114.442    3.292    3.170   34.669   27.594    0.441    1.019 
 4144  114.616    3.293    3.170   34.670   27.594    0.441    1.019 
 4145  114.789    3.295    3.170   34.670   27.594    0.441    1.019 
 4146  114.963    3.295    3.170   34.670   27.594    0.441    1.023 
 4147  115.137    3.296    3.171   34.671   27.595    0.441    1.019 
 4149  115.310    3.296    3.171   34.671   27.595    0.464    1.019 
 4150  115.484    3.296    3.171   34.672   27.596    0.464    1.019 
 4153  115.657    3.296    3.171   34.673   27.597    0.441    1.019 
 4167  115.831    3.295    3.171   34.673   27.597    0.441    1.019 
 4173  116.004    3.293    3.171   34.674   27.598    0.441    1.019 
 4175  116.178    3.293    3.170   34.676   27.599    0.441    1.015 
 4177  116.352    3.290    3.170   34.676   27.600    0.441    1.015 
 4178  116.525    3.288    3.170   34.677   27.600    0.441    1.015 
 4180  116.699    3.287    3.170   34.677   27.600    0.417    1.015 
 4181  116.872    3.287    3.170   34.677   27.600    0.417    1.015 
 4182  117.046    3.286    3.170   34.677   27.601    0.417    1.015 
 4183  117.219    3.284    3.170   34.679   27.603    0.417    1.015 
 4184  117.567    3.280    3.170   34.680   27.604    0.417    1.015 
 4186  117.740    3.279    3.170   34.680   27.604    0.417    1.015 
 4187  117.914    3.278    3.170   34.680   27.604    0.394    1.015 
 4188  118.261    3.278    3.170   34.680   27.604    0.394    1.015 
 4190  118.434    3.278    3.170   34.681   27.605    0.394    1.015 
 4191  118.608    3.278    3.170   34.682   27.605    0.394    1.015 
 4192  118.781    3.278    3.170   34.682   27.605    0.394    1.015 
 4193  118.955    3.278    3.170   34.682   27.605    0.417    1.011 
 4194  119.129    3.278    3.170   34.682   27.605    0.441    1.011 
 4195  119.302    3.278    3.170   34.682   27.605    0.441    1.011 
 4196  119.476    3.278    3.170   34.682   27.605    0.441    1.011 
 4198  119.649    3.279    3.170   34.682   27.605    0.417    1.011 
 4200  119.823    3.280    3.170   34.682   27.605    0.417    1.011 
 4201  119.996    3.280    3.170   34.682   27.605    0.441    1.011 
 4204  120.170    3.280    3.171   34.685   27.607    0.417    1.011 
 4206  120.344    3.281    3.171   34.685   27.608    0.417    1.011 
 4210  120.517    3.284    3.171   34.685   27.608    0.441    1.011 
 4213  120.691    3.284    3.171   34.686   27.608    0.417    1.011 
 4216  120.864    3.285    3.171   34.687   27.608    0.417    1.008 
 4220  121.038    3.289    3.172   34.687   27.608    0.417    1.008 
 4222  121.211    3.290    3.172   34.688   27.609    0.417    1.008 
 4224  121.385    3.293    3.172   34.688   27.609    0.417    1.008 
 4226  121.559    3.295    3.172   34.689   27.609    0.417    1.008 
 4227  121.732    3.296    3.172   34.690   27.609    0.417    1.008 
 4229  121.906    3.299    3.173   34.691   27.610    0.417    1.008 
 4230  122.253    3.309    3.173   34.692   27.610    0.417    1.008 
 4232  122.426    3.322    3.175   34.693   27.610    0.417    1.008 
 4234  122.600    3.327    3.175   34.693   27.610    0.417    1.008 
 4236  122.947    3.338    3.176   34.694   27.610    0.417    1.008 
 4238  123.121    3.342    3.177   34.695   27.610    0.417    1.008 
 4239  123.294    3.342    3.177   34.696   27.610    0.417    1.008 
 4240  123.468    3.342    3.177   34.696   27.610    0.394    1.008 
 4241  123.641    3.342    3.177   34.696   27.611    0.417    1.008 
 4242  123.815    3.343    3.178   34.698   27.611    0.417    1.004 
 4243  123.988    3.343    3.178   34.705   27.617    0.417    1.004 
 4244  124.162    3.344    3.178   34.706   27.617    0.394    1.004 
 4246  124.336    3.351    3.178   34.706   27.617    0.394    1.004 
 4247  124.509    3.353    3.179   34.706   27.617    0.394    1.004 
 4249  124.683    3.354    3.179   34.706   27.617    0.394    1.004 
 4250  124.856    3.354    3.179   34.706   27.617    0.394    1.004 
 4251  125.030    3.354    3.179   34.706   27.617    0.394    1.004 
 4253  125.203    3.354    3.179   34.706   27.617    0.394    1.004 
 4254  125.377    3.354    3.179   34.706   27.617    0.394    1.004 
 4255  125.551    3.354    3.179   34.706   27.617    0.394    1.000 
 4257  125.724    3.354    3.179   34.706   27.617    0.394    1.000 
 4259  125.898    3.354    3.179   34.706   27.617    0.417    1.000 
 4260  126.071    3.354    3.179   34.706   27.617    0.441    1.000 
 4262  126.245    3.354    3.179   34.706   27.617    0.441    1.000 
 4264  126.418    3.354    3.179   34.706   27.617    0.441    1.000 
 4266  126.592    3.355    3.179   34.706   27.617    0.464    1.000 
 4268  126.765    3.356    3.180   34.712   27.622    0.464    1.000 
 4270  126.939    3.356    3.180   34.712   27.622    0.441    1.000 
 4273  127.113    3.358    3.180   34.712   27.622    0.464    1.000 
 4275  127.286    3.358    3.180   34.712   27.622    0.464    1.000 
 4277  127.460    3.358    3.180   34.713   27.622    0.464    1.000 
 4279  127.633    3.358    3.180   34.713   27.622    0.464    1.000 
 4281  127.807    3.358    3.180   34.713   27.622    0.464    1.000 
 4283  127.980    3.358    3.180   34.713   27.622    0.464    1.000 
 4286  128.154    3.358    3.180   34.715   27.624    0.464    1.000 
 4288  128.327    3.357    3.180   34.715   27.624    0.464    1.000 
 4289  128.501    3.355    3.180   34.715   27.624    0.464    1.000 
 4292  128.675    3.355    3.180   34.715   27.624    0.441    1.000 
 4294  128.848    3.355    3.180   34.715   27.624    0.417    1.000 
 4296  129.022    3.355    3.180   34.715   27.624    0.394    1.000 
 4298  129.195    3.355    3.180   34.715   27.624    0.394    1.000 
 4299  129.369    3.355    3.180   34.715   27.624    0.394    1.000 
 4303  129.716    3.354    3.180   34.715   27.624    0.394    1.000 
 4305  129.890    3.354    3.180   34.715   27.624    0.394    0.996 
 4308  130.063    3.353    3.180   34.715   27.624    0.394    0.996 
 4309  130.237    3.353    3.180   34.715   27.624    0.394    0.996 
 4312  130.410    3.353    3.180   34.715   27.624    0.394    0.996 
 4314  130.584    3.353    3.180   34.715   27.624    0.417    0.996 
 4316  130.757    3.353    3.180   34.715   27.624    0.394    0.996 
 4318  130.931    3.354    3.180   34.715   27.624    0.394    0.996 
 4320  131.104    3.354    3.180   34.715   27.624    0.394    0.996 
 4322  131.278    3.354    3.180   34.715   27.624    0.394    0.996 
 4324  131.452    3.354    3.180   34.715   27.624    0.394    0.996 
 4325  131.625    3.354    3.180   34.714   27.624    0.394    0.996 
 4327  131.799    3.354    3.180   34.714   27.624    0.371    0.996 
 4329  131.972    3.354    3.180   34.714   27.624    0.394    0.996 
 4330  132.146    3.354    3.180   34.714   27.624    0.371    0.996 
 4332  132.493    3.354    3.180   34.714   27.624    0.371    0.996 
 4334  132.666    3.354    3.180   34.714   27.624    0.371    0.996 
 4335  132.840    3.354    3.180   34.714   27.624    0.371    0.996 
 4336  133.014    3.354    3.180   34.714   27.624    0.371    0.996 
 4338  133.187    3.354    3.180   34.714   27.624    0.371    0.996 
 4339  133.361    3.354    3.180   34.714   27.624    0.371    0.996 
 4340  133.534    3.354    3.180   34.714   27.624    0.394    0.996 
 4342  133.708    3.355    3.180   34.714   27.624    0.394    0.996 
 4343  133.881    3.356    3.180   34.714   27.624    0.394    0.996 
 4345  134.228    3.357    3.181   34.720   27.628    0.394    0.993 
 4347  134.402    3.358    3.181   34.720   27.628    0.394    0.993 
 4349  134.576    3.358    3.181   34.720   27.628    0.394    0.993 
 4350  134.749    3.358    3.181   34.720   27.628    0.394    0.993 
 4354  134.923    3.358    3.181   34.720   27.628    0.394    0.993 
 4360  135.096    3.358    3.181   34.721   27.628    0.394    0.993 
 4363  135.270    3.358    3.181   34.721   27.628    0.394    0.993 
 4367  135.443    3.357    3.181   34.721   27.629    0.394    0.993 
 4370  135.617    3.357    3.181   34.721   27.629    0.394    0.993 
 4372  135.790    3.357    3.181   34.721   27.629    0.394    0.993 
 4375  135.964    3.357    3.181   34.721   27.629    0.394    0.993 
 4376  136.138    3.357    3.181   34.721   27.629    0.394    0.993 
 4377  136.311    3.358    3.181   34.721   27.629    0.394    0.993 
 4378  136.485    3.359    3.181   34.721   27.629    0.394    0.993 
 4380  136.658    3.361    3.182   34.721   27.629    0.371    0.993 
 4381  136.832    3.361    3.182   34.721   27.629    0.371    0.993 
 4382  137.179    3.362    3.182   34.722   27.629    0.371    0.993 
 4384  137.526    3.362    3.182   34.723   27.630    0.394    0.993 
 4385  137.700    3.364    3.182   34.724   27.631    0.394    0.993 
 4386  137.873    3.365    3.182   34.725   27.631    0.394    0.993 
 4387  138.047    3.366    3.182   34.727   27.632    0.371    0.993 
 4388  138.220    3.367    3.182   34.727   27.632    0.394    0.993 
 4389  138.394    3.367    3.182   34.728   27.633    0.394    0.993 
 4390  138.567    3.368    3.183   34.728   27.633    0.417    0.993 
 4391  138.914    3.369    3.183   34.728   27.633    0.394    0.993 
 4392  139.088    3.371    3.183   34.728   27.633    0.417    0.993 
 4393  139.262    3.375    3.183   34.728   27.633    0.417    0.993 
 4394  139.435    3.378    3.184   34.728   27.633    0.417    0.993 
 4395  139.609    3.380    3.184   34.728   27.633    0.417    0.993 
 4396  139.782    3.381    3.184   34.728   27.633    0.417    0.993 
 4397  139.956    3.382    3.184   34.729   27.634    0.417    0.993 
 4398  140.129    3.382    3.184   34.731   27.634    0.417    0.993 
 4399  140.303    3.382    3.184   34.731   27.634    0.417    0.993 
 4400  140.476    3.383    3.184   34.732   27.635    0.417    0.993 
 4401  140.650    3.383    3.184   34.731   27.635    0.417    0.993 
 4402  140.823    3.383    3.185   34.731   27.635    0.417    0.989 
 4404  140.997    3.384    3.185   34.731   27.635    0.417    0.989 
 4405  141.171    3.384    3.185   34.733   27.635    0.417    0.989 
 4407  141.344    3.385    3.185   34.733   27.635    0.417    0.989 
 4410  141.518    3.385    3.185   34.734   27.636    0.417    0.985 
 4425  141.691    3.385    3.185   34.734   27.636    0.371    0.985 
 4432  141.865    3.386    3.185   34.734   27.637    0.394    0.985 
 4435  142.038    3.387    3.185   34.735   27.637    0.394    0.985 
 4437  142.212    3.388    3.185   34.736   27.637    0.394    0.985 
 4439  142.559    3.389    3.185   34.736   27.637    0.394    0.985 
 4441  142.733    3.389    3.185   34.736   27.637    0.394    0.985 
 4442  142.906    3.391    3.185   34.736   27.637    0.394    0.985 
 4444  143.253    3.394    3.186   34.736   27.638    0.394    0.985 
 4445  143.427    3.395    3.186   34.736   27.638    0.417    0.985 
 4447  143.774    3.397    3.186   34.736   27.638    0.394    0.985 
 4449  143.947    3.398    3.186   34.737   27.638    0.417    0.985 
 4450  144.121    3.399    3.187   34.738   27.638    0.417    0.985 
 4451  144.294    3.402    3.187   34.739   27.638    0.417    0.985 
 4452  144.468    3.404    3.187   34.741   27.640    0.417    0.985 
 4453  144.642    3.406    3.187   34.743   27.642    0.417    0.985 
 4454  144.815    3.406    3.188   34.743   27.642    0.417    0.985 
 4455  144.989    3.407    3.188   34.744   27.642    0.417    0.985 
 4456  145.162    3.407    3.188   34.745   27.643    0.417    0.985 
 4457  145.336    3.407    3.188   34.745   27.643    0.417    0.985 
 4459  145.509    3.407    3.188   34.746   27.643    0.417    0.985 
 4460  145.683    3.408    3.188   34.746   27.643    0.417    0.985 
 4462  145.856    3.408    3.188   34.746   27.644    0.417    0.985 
 4464  146.030    3.408    3.188   34.746   27.644    0.417    0.985 
 4469  146.203    3.408    3.188   34.747   27.644    0.417    0.982 
 4479  146.377    3.410    3.188   34.747   27.644    0.417    0.982 
 4484  146.551    3.412    3.188   34.747   27.644    0.417    0.982 
 4485  146.724    3.413    3.189   34.747   27.644    0.394    0.982 
 4487  146.898    3.414    3.189   34.747   27.644    0.394    0.982 
 4488  147.071    3.414    3.189   34.747   27.644    0.394    0.982 
 4490  147.245    3.416    3.189   34.748   27.645    0.394    0.982 
 4491  147.418    3.419    3.189   34.748   27.645    0.394    0.982 
 4492  147.592    3.421    3.189   34.749   27.645    0.394    0.982 
 4493  147.765    3.422    3.190   34.751   27.646    0.394    0.982 
 4494  147.939    3.424    3.190   34.751   27.646    0.394    0.982 
 4495  148.112    3.427    3.190   34.751   27.646    0.417    0.982 
 4496  148.286    3.430    3.190   34.751   27.646    0.394    0.982 
 4497  148.460    3.430    3.191   34.751   27.646    0.394    0.982 
 4498  148.633    3.432    3.191   34.751   27.646    0.394    0.982 
 4500  148.807    3.437    3.191   34.752   27.646    0.394    0.982 
 4501  148.980    3.439    3.192   34.752   27.646    0.394    0.982 
 4502  149.154    3.442    3.192   34.754   27.647    0.371    0.982 
 4503  149.327    3.445    3.192   34.755   27.647    0.371    0.982 
 4504  149.501    3.445    3.192   34.756   27.648    0.371    0.982 
 4505  149.674    3.446    3.192   34.756   27.648    0.371    0.982 
 4506  149.848    3.446    3.192   34.756   27.648    0.371    0.982 
 4508  150.021    3.446    3.193   34.756   27.648    0.371    0.982 
 4510  150.195    3.446    3.193   34.757   27.649    0.371    0.982 
 4512  150.369    3.446    3.193   34.757   27.649    0.394    0.982 
 4516  150.542    3.447    3.193   34.759   27.649    0.371    0.978 
 4521  150.716    3.447    3.193   34.759   27.649    0.394    0.978 
 4523  150.889    3.447    3.193   34.759   27.649    0.394    0.978 
 4527  151.063    3.449    3.193   34.759   27.649    0.417    0.978 
 4529  151.236    3.451    3.193   34.759   27.649    0.417    0.978 
 4531  151.410    3.453    3.193   34.759   27.649    0.441    0.978 
 4532  151.583    3.453    3.193   34.759   27.649    0.441    0.978 
 4533  151.757    3.455    3.193   34.759   27.650    0.441    0.978 
 4534  151.930    3.456    3.194   34.759   27.650    0.394    0.978 
 4536  152.104    3.458    3.194   34.759   27.650    0.441    0.978 
 4537  152.278    3.459    3.194   34.759   27.650    0.441    0.978 
 4538  152.451    3.459    3.194   34.759   27.650    0.441    0.978 
 4539  152.625    3.460    3.194   34.759   27.650    0.394    0.978 
 4540  152.798    3.460    3.194   34.759   27.650    0.371    0.978 
 4541  152.972    3.460    3.194   34.759   27.650    0.371    0.978 
 4542  153.145    3.460    3.194   34.760   27.650    0.371    0.978 
 4543  153.319    3.460    3.194   34.760   27.650    0.371    0.978 
 4544  153.492    3.461    3.194   34.761   27.650    0.371    0.978 
 4545  153.839    3.461    3.194   34.761   27.650    0.371    0.978 
 4547  154.186    3.463    3.195   34.761   27.650    0.371    0.978 
 4549  154.360    3.466    3.195   34.760   27.651    0.371    0.978 
 4550  154.534    3.466    3.195   34.760   27.651    0.371    0.978 
 4551  154.707    3.466    3.195   34.761   27.651    0.371    0.978 
 4552  154.881    3.467    3.195   34.762   27.651    0.371    0.978 
 4555  155.054    3.467    3.195   34.762   27.651    0.417    0.978 
 4557  155.228    3.467    3.195   34.762   27.651    0.371    0.978 
 4558  155.401    3.467    3.195   34.762   27.651    0.371    0.978 
 4568  155.575    3.467    3.195   34.762   27.651    0.371    0.975 
 4580  155.748    3.467    3.195   34.763   27.652    0.371    0.975 
 4583  155.922    3.468    3.195   34.763   27.652    0.394    0.975 
 4584  156.095    3.468    3.195   34.763   27.652    0.394    0.975 
 4586  156.269    3.468    3.195   34.763   27.652    0.394    0.975 
 4587  156.442    3.469    3.196   34.768   27.655    0.394    0.975 
 4588  156.616    3.469    3.196   34.768   27.655    0.394    0.975 
 4589  156.790    3.469    3.196   34.768   27.655    0.394    0.975 
 4590  156.963    3.469    3.196   34.768   27.655    0.394    0.975 
 4591  157.137    3.469    3.196   34.768   27.655    0.394    0.975 
 4592  157.310    3.469    3.196   34.768   27.655    0.394    0.975 
 4593  157.657    3.469    3.196   34.768   27.655    0.394    0.975 
 4595  158.004    3.470    3.196   34.768   27.655    0.394    0.975 
 4596  158.178    3.470    3.196   34.768   27.655    0.394    0.975 
 4597  158.351    3.471    3.196   34.769   27.656    0.394    0.975 
 4598  158.525    3.471    3.196   34.769   27.656    0.394    0.975 
 4599  158.698    3.471    3.196   34.769   27.656    0.394    0.975 
 4600  158.872    3.472    3.196   34.769   27.656    0.394    0.975 
 4601  159.046    3.472    3.196   34.769   27.656    0.394    0.975 
 4602  159.219    3.472    3.196   34.769   27.656    0.394    0.975 
 4603  159.393    3.474    3.196   34.769   27.656    0.394    0.975 
 4604  159.566    3.474    3.196   34.769   27.656    0.417    0.975 
 4606  159.740    3.476    3.196   34.769   27.656    0.417    0.975 
 4608  159.913    3.476    3.197   34.772   27.657    0.417    0.975 
 4609  160.087    3.476    3.197   34.772   27.657    0.417    0.975 
 4613  160.260    3.477    3.197   34.772   27.657    0.417    0.971 
 4616  160.434    3.477    3.197   34.772   27.657    0.417    0.971 
 4623  160.607    3.477    3.197   34.772   27.657    0.441    0.971 
 4628  160.781    3.477    3.197   34.772   27.657    0.441    0.967 
 4632  160.954    3.477    3.197   34.772   27.657    0.394    0.967 
 4636  161.128    3.477    3.197   34.772   27.657    0.394    0.967 
 4638  161.302    3.477    3.197   34.772   27.657    0.394    0.967 
 4640  161.475    3.477    3.197   34.772   27.657    0.394    0.967 
 4643  161.649    3.477    3.197   34.772   27.657    0.394    0.967 
 4645  161.822    3.477    3.197   34.772   27.657    0.394    0.967 
 4646  161.996    3.477    3.197   34.771   27.657    0.394    0.967 
 4649  162.343    3.477    3.197   34.771   27.657    0.394    0.964 
 4651  162.516    3.478    3.197   34.771   27.657    0.371    0.964 
 4652  162.690    3.478    3.197   34.771   27.657    0.371    0.964 
 4654  162.863    3.479    3.197   34.771   27.657    0.371    0.964 
 4655  163.037    3.479    3.197   34.771   27.657    0.371    0.964 
 4656  163.210    3.480    3.197   34.770   27.656    0.371    0.964 
 4657  163.384    3.480    3.197   34.770   27.656    0.371    0.964 
 4658  163.557    3.481    3.197   34.770   27.656    0.371    0.964 
 4659  163.731    3.481    3.197   34.770   27.656    0.348    0.964 
 4660  163.905    3.481    3.197   34.770   27.656    0.348    0.964 
 4661  164.078    3.483    3.198   34.770   27.656    0.348    0.964 
 4662  164.252    3.485    3.198   34.770   27.656    0.371    0.964 
 4663  164.425    3.487    3.198   34.770   27.656    0.371    0.964 
 4664  164.599    3.487    3.198   34.770   27.656    0.371    0.964 
 4665  164.772    3.488    3.198   34.770   27.656    0.348    0.964 
 4666  164.946    3.488    3.198   34.771   27.656    0.348    0.964 
 4667  165.119    3.489    3.198   34.771   27.656    0.348    0.964 
 4668  165.293    3.489    3.198   34.774   27.658    0.348    0.964 
 4669  165.466    3.489    3.198   34.774   27.658    0.348    0.964 
 4670  165.640    3.490    3.199   34.774   27.658    0.348    0.964 
 4671  165.813    3.490    3.199   34.774   27.658    0.371    0.964 
 4672  165.987    3.491    3.199   34.774   27.658    0.371    0.964 
 4673  166.160    3.491    3.199   34.774   27.658    0.394    0.964 
 4675  166.334    3.492    3.199   34.774   27.658    0.394    0.964 
 4676  166.507    3.493    3.199   34.774   27.658    0.417    0.964 
 4678  166.681    3.494    3.199   34.774   27.658    0.417    0.964 
 4679  166.855    3.494    3.199   34.774   27.658    0.417    0.964 
 4682  167.028    3.494    3.199   34.775   27.658    0.394    0.964 
 4683  167.202    3.494    3.199   34.775   27.658    0.394    0.964 
 4687  167.375    3.494    3.199   34.775   27.658    0.417    0.964 
 4693  167.549    3.494    3.199   34.775   27.658    0.394    0.964 
 4698  167.722    3.495    3.199   34.775   27.658    0.394    0.964 
 4702  167.896    3.496    3.199   34.775   27.658    0.417    0.964 
 4704  168.069    3.496    3.199   34.775   27.658    0.417    0.964 
 4706  168.243    3.496    3.199   34.775   27.658    0.417    0.964 
 4708  168.416    3.496    3.199   34.775   27.658    0.417    0.964 
 4710  168.590    3.497    3.200   34.778   27.661    0.417    0.964 
 4711  168.763    3.499    3.200   34.778   27.661    0.417    0.964 
 4712  168.937    3.499    3.200   34.778   27.661    0.417    0.964 
 4714  169.110    3.499    3.200   34.778   27.661    0.417    0.964 
 4715  169.284    3.499    3.200   34.778   27.661    0.417    0.964 
 4716  169.457    3.499    3.200   34.778   27.661    0.417    0.964 
 4718  169.805    3.500    3.200   34.778   27.661    0.417    0.964 
 4720  170.152    3.500    3.200   34.778   27.661    0.417    0.964 
 4722  170.325    3.500    3.200   34.778   27.661    0.417    0.964 
 4723  170.499    3.500    3.200   34.778   27.661    0.417    0.964 
 4724  170.672    3.500    3.200   34.778   27.661    0.417    0.964 
 4725  170.846    3.500    3.200   34.778   27.660    0.417    0.964 
 4727  171.019    3.500    3.200   34.778   27.660    0.417    0.964 
 4728  171.193    3.500    3.200   34.778   27.660    0.417    0.964 
 4729  171.366    3.500    3.200   34.778   27.660    0.394    0.964 
 4731  171.540    3.500    3.200   34.778   27.660    0.394    0.964 
 4732  171.713    3.500    3.200   34.778   27.660    0.394    0.964 
 4734  171.887    3.500    3.200   34.778   27.660    0.394    0.964 
 4738  172.060    3.500    3.200   34.778   27.660    0.394    0.964 
 4740  172.234    3.500    3.200   34.778   27.660    0.394    0.964 
 4742  172.407    3.500    3.200   34.778   27.660    0.394    0.964 
 4746  172.581    3.501    3.200   34.778   27.660    0.394    0.964 
 4749  172.755    3.501    3.200   34.778   27.660    0.441    0.964 
 4752  172.928    3.502    3.200   34.778   27.660    0.417    0.964 
 4754  173.102    3.502    3.200   34.778   27.660    0.417    0.964 
 4758  173.275    3.504    3.201   34.778   27.660    0.417    0.964 
 4760  173.449    3.505    3.201   34.779   27.660    0.417    0.964 
 4763  173.622    3.506    3.201   34.780   27.661    0.417    0.964 
 4765  173.796    3.507    3.201   34.780   27.661    0.417    0.964 
 4766  173.969    3.508    3.201   34.780   27.661    0.417    0.964 
 4768  174.143    3.508    3.201   34.780   27.661    0.417    0.964 
 4770  174.316    3.509    3.201   34.780   27.661    0.417    0.964 
 4772  174.490    3.511    3.201   34.780   27.661    0.394    0.964 
 4774  174.663    3.512    3.202   34.780   27.661    0.417    0.964 
 4775  174.837    3.513    3.202   34.780   27.661    0.417    0.964 
 4776  175.010    3.514    3.202   34.781   27.661    0.417    0.964 
 4778  175.357    3.514    3.202   34.781   27.661    0.417    0.964 
 4780  175.531    3.515    3.202   34.781   27.661    0.417    0.964 
 4782  175.878    3.517    3.202   34.781   27.661    0.417    0.964 
 4784  176.051    3.518    3.202   34.781   27.661    0.441    0.964 
 4785  176.225    3.518    3.202   34.784   27.663    0.417    0.964 
 4786  176.399    3.518    3.202   34.785   27.664    0.417    0.960 
 4787  176.572    3.518    3.202   34.785   27.664    0.394    0.960 
 4789  176.746    3.519    3.202   34.785   27.664    0.394    0.960 
 4790  176.919    3.520    3.202   34.785   27.664    0.394    0.960 
 4792  177.093    3.521    3.203   34.785   27.664    0.394    0.960 
 4793  177.266    3.521    3.203   34.785   27.664    0.394    0.960 
 4794  177.440    3.521    3.203   34.785   27.664    0.394    0.960 
 4796  177.613    3.522    3.203   34.785   27.664    0.394    0.960 
 4797  177.787    3.523    3.203   34.785   27.664    0.394    0.960 
 4799  177.960    3.523    3.203   34.785   27.664    0.394    0.960 
 4800  178.134    3.523    3.203   34.785   27.664    0.394    0.960 
 4801  178.307    3.523    3.203   34.785   27.664    0.394    0.960 
 4803  178.481    3.523    3.203   34.785   27.664    0.394    0.960 
 4804  178.654    3.523    3.203   34.785   27.664    0.394    0.960 
 4806  178.828    3.523    3.203   34.786   27.664    0.371    0.960 
 4808  179.001    3.523    3.203   34.786   27.664    0.371    0.960 
 4810  179.175    3.524    3.203   34.786   27.664    0.371    0.960 
 4812  179.348    3.524    3.203   34.786   27.664    0.371    0.960 
 4814  179.522    3.524    3.203   34.786   27.664    0.371    0.960 
 4817  179.695    3.525    3.203   34.786   27.664    0.371    0.960 
 4823  179.869    3.525    3.203   34.786   27.664    0.394    0.960 
 4826  180.042    3.525    3.203   34.786   27.664    0.371    0.960 
 4829  180.216    3.526    3.204   34.787   27.665    0.394    0.960 
 4832  180.390    3.529    3.204   34.787   27.665    0.394    0.960 
 4834  180.563    3.531    3.204   34.787   27.665    0.394    0.960 
 4836  180.737    3.531    3.204   34.787   27.665    0.417    0.960 
 4837  180.910    3.531    3.204   34.787   27.665    0.417    0.960 
 4838  181.084    3.531    3.204   34.787   27.665    0.394    0.960 
 4840  181.257    3.531    3.204   34.787   27.665    0.394    0.960 
 4841  181.431    3.531    3.204   34.787   27.665    0.371    0.960 
 4842  181.604    3.531    3.204   34.787   27.665    0.394    0.960 
 4843  181.951    3.531    3.204   34.787   27.665    0.371    0.960 
 4844  182.125    3.531    3.204   34.787   27.665    0.371    0.960 
 4846  182.298    3.530    3.204   34.787   27.665    0.394    0.960 
 4847  182.645    3.530    3.204   34.787   27.665    0.394    0.960 
 4849  182.992    3.530    3.204   34.787   27.665    0.371    0.960 
 4850  183.166    3.530    3.204   34.787   27.665    0.371    0.960 
 4851  183.339    3.530    3.204   34.787   27.665    0.417    0.960 
 4852  183.513    3.530    3.204   34.787   27.665    0.417    0.960 
 4853  183.686    3.530    3.204   34.787   27.665    0.417    0.960 
 4854  184.033    3.530    3.204   34.787   27.665    0.417    0.960 
 4856  184.207    3.530    3.204   34.787   27.665    0.417    0.960 
 4857  184.380    3.530    3.204   34.787   27.665    0.417    0.960 
 4858  184.554    3.531    3.204   34.787   27.665    0.417    0.960 
 4859  184.728    3.531    3.204   34.787   27.665    0.417    0.960 
 4860  184.901    3.531    3.204   34.787   27.665    0.417    0.960 
 4861  185.075    3.531    3.204   34.787   27.665    0.417    0.960 
 4862  185.248    3.532    3.204   34.787   27.665    0.417    0.960 
 4864  185.422    3.532    3.204   34.787   27.665    0.417    0.957 
 4866  185.595    3.532    3.204   34.787   27.665    0.417    0.957 
 4869  185.769    3.532    3.204   34.787   27.665    0.417    0.957 
 4896  185.942    3.532    3.205   34.787   27.665    0.371    0.953 
 4898  186.116    3.532    3.205   34.789   27.666    0.371    0.953 
 4899  186.289    3.533    3.205   34.789   27.666    0.371    0.953 
 4900  186.463    3.534    3.205   34.790   27.667    0.371    0.953 
 4901  186.636    3.536    3.205   34.791   27.667    0.371    0.953 
 4903  186.983    3.537    3.205   34.793   27.669    0.371    0.953 
 4904  187.157    3.538    3.205   34.795   27.670    0.348    0.953 
 4905  187.330    3.538    3.205   34.796   27.671    0.348    0.953 
 4906  187.504    3.539    3.205   34.796   27.671    0.348    0.953 
 4907  187.677    3.539    3.206   34.796   27.671    0.371    0.957 
 4908  187.851    3.539    3.206   34.796   27.671    0.371    0.957 
 4909  188.024    3.540    3.206   34.796   27.671    0.371    0.957 
 4910  188.198    3.540    3.206   34.796   27.671    0.371    0.957 
 4911  188.545    3.540    3.206   34.796   27.671    0.394    0.957 
 4913  188.718    3.541    3.206   34.796   27.671    0.394    0.957 
 4914  189.065    3.541    3.206   34.796   27.671    0.394    0.957 
 4915  189.239    3.541    3.206   34.796   27.671    0.394    0.957 
 4917  189.412    3.541    3.206   34.796   27.671    0.394    0.957 
 4918  189.586    3.541    3.206   34.796   27.671    0.394    0.957 
 4919  189.759    3.541    3.206   34.796   27.671    0.394    0.957 
 4921  189.933    3.541    3.206   34.796   27.671    0.394    0.957 
 4922  190.106    3.541    3.206   34.796   27.671    0.394    0.957 
 4924  190.280    3.541    3.206   34.796   27.671    0.394    0.953 
 4926  190.453    3.541    3.206   34.796   27.671    0.394    0.953 
 4929  190.627    3.541    3.206   34.796   27.671    0.394    0.953 
 4931  190.801    3.541    3.206   34.796   27.671    0.394    0.953 
 4936  190.974    3.541    3.206   34.796   27.671    0.394    0.953 
 4940  191.148    3.540    3.206   34.796   27.671    0.371    0.953 
 4946  191.321    3.540    3.206   34.796   27.671    0.394    0.953 
 4947  191.495    3.540    3.206   34.796   27.671    0.394    0.953 
 4950  191.668    3.540    3.206   34.796   27.671    0.394    0.953 
 4951  191.842    3.540    3.206   34.796   27.671    0.394    0.950 
 4953  192.015    3.541    3.206   34.796   27.671    0.394    0.950 
 4954  192.189    3.541    3.206   34.796   27.671    0.394    0.950 
 4956  192.362    3.542    3.206   34.796   27.671    0.394    0.950 
 4957  192.536    3.544    3.206   34.796   27.671    0.394    0.950 
 4959  192.709    3.546    3.207   34.798   27.671    0.394    0.950 
 4960  192.883    3.547    3.207   34.798   27.671    0.394    0.950 
 4961  193.056    3.547    3.207   34.798   27.671    0.371    0.950 
 4962  193.403    3.547    3.207   34.798   27.671    0.371    0.950 
 4964  193.750    3.547    3.207   34.798   27.671    0.371    0.953 
 4965  193.924    3.547    3.207   34.798   27.671    0.371    0.953 
 4967  194.271    3.547    3.207   34.798   27.671    0.371    0.953 
 4968  194.444    3.547    3.207   34.798   27.671    0.324    0.953 
 4969  194.618    3.548    3.207   34.798   27.671    0.371    0.953 
 4970  194.965    3.548    3.207   34.798   27.671    0.371    0.953 
 4971  195.138    3.548    3.207   34.798   27.671    0.324    0.953 
 4972  195.485    3.549    3.207   34.796   27.670    0.324    0.953 
 4974  195.659    3.549    3.207   34.796   27.670    0.324    0.950 
 4975  196.006    3.549    3.207   34.796   27.670    0.348    0.950 
 4977  196.353    3.549    3.207   34.796   27.670    0.348    0.950 
 4978  196.526    3.549    3.207   34.796   27.670    0.348    0.950 
 4980  196.700    3.549    3.207   34.796   27.670    0.348    0.950 
 4981  196.873    3.549    3.207   34.796   27.670    0.371    0.950 
 4982  197.047    3.549    3.207   34.796   27.670    0.371    0.950 
 4984  197.394    3.549    3.207   34.795   27.669    0.371    0.950 
 4997  197.567    3.549    3.207   34.795   27.669    0.371    0.950 
 5011  197.741    3.549    3.207   34.795   27.669    0.417    0.950 
 5014  197.914    3.549    3.207   34.795   27.669    0.417    0.950 
 5016  198.088    3.549    3.207   34.795   27.669    0.417    0.946 
 5018  198.261    3.549    3.207   34.795   27.669    0.417    0.946 
 5019  198.435    3.549    3.207   34.795   27.669    0.394    0.946 
 5021  198.608    3.549    3.207   34.795   27.669    0.394    0.946 
 5022  198.782    3.549    3.207   34.795   27.669    0.394    0.946 
 5023  198.955    3.549    3.207   34.795   27.669    0.394    0.946 
 5024  199.129    3.549    3.207   34.795   27.669    0.371    0.946 
 5025  199.302    3.549    3.207   34.795   27.669    0.371    0.946 
 5027  199.476    3.551    3.207   34.795   27.669    0.371    0.946 
 5028  199.649    3.552    3.207   34.795   27.669    0.371    0.950 
 5029  199.823    3.552    3.208   34.801   27.673    0.371    0.946 
 5030  199.996    3.553    3.208   34.801   27.673    0.371    0.946 
 5031  200.170    3.553    3.208   34.801   27.673    0.371    0.946 
 5032  200.343    3.553    3.208   34.801   27.673    0.371    0.946 
 5033  200.517    3.553    3.208   34.801   27.673    0.371    0.946 
 5034  200.690    3.553    3.208   34.801   27.673    0.371    0.946 
 5035  201.038    3.553    3.208   34.801   27.673    0.371    0.946 
 5037  201.211    3.553    3.208   34.801   27.673    0.371    0.946 
 5038  201.385    3.553    3.208   34.801   27.673    0.371    0.946 
 5039  201.558    3.553    3.208   34.801   27.673    0.371    0.946 
 5040  201.732    3.553    3.208   34.801   27.673    0.371    0.946 
 5041  201.905    3.553    3.208   34.801   27.673    0.371    0.946 
 5042  202.079    3.553    3.208   34.801   27.673    0.371    0.946 
 5044  202.426    3.553    3.208   34.800   27.673    0.371    0.950 
 5046  202.599    3.553    3.208   34.800   27.673    0.371    0.946 
 5047  202.773    3.553    3.208   34.800   27.673    0.371    0.946 
 5049  202.946    3.553    3.208   34.800   27.673    0.394    0.946 
 5050  203.120    3.553    3.208   34.800   27.673    0.394    0.946 
 5054  203.293    3.553    3.208   34.800   27.673    0.394    0.946 
 5075  203.640    3.554    3.208   34.800   27.673    0.417    0.946 
 5078  203.814    3.554    3.208   34.800   27.673    0.417    0.946 
 5080  203.987    3.555    3.208   34.800   27.673    0.371    0.946 
 5081  204.161    3.556    3.208   34.800   27.672    0.371    0.946 
 5082  204.334    3.556    3.208   34.800   27.672    0.371    0.946 
 5084  204.681    3.556    3.208   34.800   27.672    0.371    0.946 
 5085  204.855    3.557    3.208   34.800   27.672    0.371    0.946 
 5086  205.028    3.558    3.208   34.800   27.672    0.371    0.946 
 5087  205.202    3.559    3.209   34.800   27.672    0.371    0.946 
 5088  205.375    3.559    3.209   34.800   27.672    0.371    0.946 
 5089  205.722    3.559    3.209   34.799   27.672    0.371    0.946 
 5090  205.896    3.560    3.209   34.799   27.672    0.371    0.946 
 5091  206.069    3.560    3.209   34.800   27.672    0.394    0.946 
 5092  206.243    3.561    3.209   34.800   27.672    0.417    0.946 
 5093  206.416    3.562    3.209   34.800   27.672    0.417    0.946 
 5094  206.763    3.562    3.209   34.801   27.672    0.417    0.946 
 5095  206.937    3.562    3.209   34.802   27.673    0.417    0.946 
 5096  207.110    3.562    3.209   34.803   27.674    0.441    0.950 
 5097  207.284    3.563    3.209   34.803   27.674    0.441    0.950 
 5098  207.457    3.565    3.209   34.803   27.674    0.441    0.946 
 5099  207.631    3.565    3.209   34.803   27.674    0.441    0.946 
 5100  207.804    3.566    3.209   34.803   27.674    0.441    0.946 
 5101  207.978    3.566    3.210   34.806   27.676    0.417    0.946 
 5102  208.151    3.566    3.210   34.806   27.676    0.394    0.946 
 5104  208.325    3.567    3.210   34.806   27.676    0.394    0.946 
 5106  208.498    3.567    3.210   34.806   27.676    0.394    0.946 
 5120  208.672    3.567    3.210   34.806   27.676    0.348    0.943 
 5129  208.845    3.567    3.210   34.806   27.676    0.348    0.943 
 5130  209.019    3.567    3.210   34.806   27.676    0.371    0.943 
 5132  209.192    3.567    3.210   34.806   27.676    0.348    0.943 
 5134  209.366    3.567    3.210   34.806   27.676    0.371    0.943 
 5135  209.539    3.567    3.210   34.806   27.676    0.348    0.943 
 5136  209.713    3.567    3.210   34.806   27.676    0.348    0.943 
 5138  210.060    3.567    3.210   34.805   27.676    0.371    0.943 
 5139  210.233    3.567    3.210   34.805   27.675    0.371    0.943 
 5141  210.407    3.568    3.210   34.804   27.674    0.371    0.943 
 5142  210.754    3.568    3.210   34.804   27.674    0.371    0.943 
 5144  210.927    3.568    3.210   34.804   27.674    0.371    0.943 
 5145  211.274    3.568    3.210   34.804   27.674    0.371    0.943 
 5146  211.448    3.568    3.210   34.803   27.674    0.371    0.943 
 5147  211.621    3.568    3.210   34.803   27.674    0.394    0.943 
 5149  211.968    3.568    3.210   34.803   27.674    0.371    0.943 
 5150  212.142    3.568    3.210   34.803   27.674    0.371    0.943 
 5151  212.315    3.568    3.210   34.803   27.674    0.371    0.943 
 5153  212.489    3.569    3.210   34.803   27.673    0.394    0.943 
 5154  212.662    3.569    3.210   34.803   27.673    0.371    0.943 
 5156  213.009    3.569    3.210   34.803   27.673    0.394    0.943 
 5159  213.356    3.569    3.210   34.803   27.673    0.394    0.943 
 5161  213.529    3.569    3.210   34.803   27.673    0.394    0.943 
 5163  213.703    3.569    3.210   34.803   27.673    0.371    0.943 
 5166  213.876    3.570    3.210   34.803   27.673    0.371    0.943 
 5169  214.050    3.570    3.210   34.803   27.673    0.394    0.943 
 5171  214.223    3.570    3.210   34.803   27.673    0.394    0.943 
 5174  214.397    3.570    3.210   34.803   27.673    0.394    0.943 
 5177  214.570    3.573    3.211   34.803   27.673    0.394    0.939 
 5178  214.744    3.574    3.211   34.803   27.673    0.394    0.939 
 5181  214.917    3.574    3.211   34.803   27.673    0.394    0.939 
 5184  215.091    3.575    3.211   34.804   27.674    0.394    0.939 
 5187  215.264    3.575    3.211   34.805   27.674    0.394    0.939 
 5188  215.438    3.576    3.211   34.805   27.674    0.394    0.939 
 5191  215.611    3.576    3.211   34.805   27.674    0.394    0.939 
 5192  215.785    3.576    3.211   34.806   27.675    0.394    0.939 
 5195  215.958    3.576    3.211   34.806   27.675    0.394    0.939 
 5197  216.132    3.577    3.211   34.807   27.676    0.394    0.939 
 5199  216.305    3.577    3.211   34.807   27.676    0.394    0.939 
 5200  216.479    3.577    3.211   34.807   27.676    0.394    0.939 
 5203  216.652    3.577    3.212   34.813   27.681    0.371    0.939 
 5204  216.826    3.577    3.212   34.813   27.681    0.371    0.939 
 5206  216.999    3.578    3.212   34.813   27.681    0.371    0.939 
 5207  217.173    3.578    3.212   34.813   27.681    0.371    0.939 
 5208  217.346    3.578    3.212   34.813   27.681    0.371    0.939 
 5209  217.520    3.578    3.212   34.813   27.681    0.371    0.939 
 5211  217.693    3.578    3.212   34.813   27.681    0.348    0.939 
 5212  217.867    3.578    3.212   34.813   27.681    0.348    0.939 
 5213  218.040    3.578    3.212   34.813   27.681    0.348    0.939 
 5215  218.214    3.578    3.212   34.813   27.681    0.371    0.939 
 5216  218.387    3.578    3.212   34.813   27.681    0.371    0.939 
 5217  218.561    3.578    3.212   34.813   27.681    0.371    0.939 
 5218  218.734    3.578    3.212   34.813   27.680    0.348    0.939 
 5219  218.908    3.578    3.212   34.813   27.680    0.371    0.939 
 5221  219.081    3.578    3.212   34.813   27.680    0.394    0.939 
 5222  219.255    3.578    3.212   34.813   27.680    0.394    0.939 
 5224  219.428    3.578    3.212   34.812   27.680    0.394    0.939 
 5226  219.602    3.578    3.212   34.812   27.680    0.394    0.939 
 5227  219.775    3.578    3.212   34.812   27.680    0.394    0.939 
 5229  219.949    3.579    3.212   34.811   27.679    0.394    0.939 
 5231  220.122    3.579    3.212   34.811   27.679    0.394    0.939 
 5233  220.296    3.579    3.212   34.811   27.679    0.394    0.939 
 5237  220.469    3.579    3.212   34.811   27.679    0.394    0.939 
 5242  220.643    3.579    3.212   34.811   27.679    0.394    0.939 
 5247  220.816    3.579    3.212   34.811   27.679    0.394    0.939 
 5250  220.990    3.579    3.212   34.811   27.678    0.394    0.939 
 5252  221.163    3.579    3.212   34.810   27.678    0.394    0.939 
 5254  221.337    3.580    3.212   34.809   27.677    0.371    0.939 
 5256  221.510    3.580    3.212   34.809   27.677    0.371    0.939 
 5257  221.684    3.580    3.212   34.809   27.677    0.348    0.939 
 5258  221.857    3.580    3.212   34.809   27.677    0.348    0.936 
 5259  222.031    3.580    3.212   34.809   27.677    0.348    0.939 
 5260  222.204    3.580    3.212   34.809   27.677    0.348    0.939 
 5261  222.378    3.580    3.212   34.809   27.677    0.348    0.939 
 5262  222.551    3.580    3.212   34.809   27.677    0.348    0.939 
 5263  222.725    3.580    3.212   34.809   27.677    0.348    0.936 
 5264  222.898    3.580    3.212   34.808   27.677    0.348    0.936 
 5265  223.071    3.580    3.212   34.808   27.677    0.348    0.936 
 5266  223.418    3.580    3.212   34.808   27.677    0.348    0.936 
 5268  223.765    3.580    3.212   34.808   27.676    0.371    0.936 
 5269  223.939    3.580    3.212   34.808   27.676    0.371    0.939 
 5270  224.112    3.580    3.212   34.808   27.676    0.371    0.936 
 5271  224.286    3.580    3.212   34.808   27.676    0.371    0.936 
 5272  224.459    3.581    3.212   34.807   27.675    0.371    0.936 
 5273  224.633    3.581    3.212   34.806   27.675    0.371    0.936 
 5274  224.806    3.581    3.212   34.806   27.675    0.371    0.936 
 5275  224.980    3.581    3.212   34.806   27.675    0.371    0.936 
 5277  225.153    3.581    3.212   34.806   27.675    0.371    0.936 
 5279  225.327    3.581    3.212   34.806   27.675    0.371    0.936 
 5281  225.500    3.581    3.212   34.806   27.675    0.371    0.936 
 5292  225.674    3.581    3.212   34.806   27.675    0.371    0.936 
 5304  225.847    3.581    3.212   34.806   27.674    0.371    0.936 
 5305  226.021    3.581    3.212   34.806   27.674    0.371    0.936 
 5307  226.194    3.581    3.212   34.806   27.674    0.371    0.936 
 5309  226.541    3.581    3.212   34.805   27.674    0.371    0.936 
 5311  226.715    3.581    3.212   34.805   27.674    0.371    0.936 
 5312  226.888    3.581    3.212   34.805   27.674    0.371    0.936 
 5313  227.062    3.581    3.212   34.805   27.674    0.371    0.936 
 5314  227.235    3.581    3.212   34.805   27.674    0.394    0.936 
 5315  227.409    3.581    3.212   34.805   27.674    0.371    0.936 
 5316  227.582    3.581    3.212   34.805   27.674    0.394    0.936 
 5317  227.756    3.581    3.212   34.805   27.674    0.394    0.936 
 5318  227.929    3.581    3.212   34.805   27.674    0.394    0.936 
 5319  228.103    3.581    3.212   34.805   27.674    0.371    0.936 
 5320  228.276    3.582    3.212   34.805   27.674    0.371    0.936 
 5321  228.450    3.582    3.212   34.805   27.674    0.371    0.936 
 5323  228.623    3.582    3.213   34.808   27.676    0.371    0.936 
 5324  228.797    3.582    3.213   34.808   27.676    0.394    0.936 
 5326  228.970    3.585    3.213   34.808   27.676    0.394    0.936 
 5327  229.143    3.585    3.213   34.808   27.676    0.394    0.936 
 5329  229.317    3.585    3.213   34.808   27.676    0.394    0.936 
 5332  229.490    3.585    3.213   34.809   27.677    0.394    0.936 
 5337  229.664    3.585    3.213   34.810   27.678    0.371    0.932 
 5343  229.837    3.585    3.213   34.811   27.678    0.394    0.932 
 5348  230.011    3.586    3.213   34.811   27.678    0.394    0.932 
 5352  230.184    3.587    3.213   34.812   27.678    0.417    0.932 
 5354  230.358    3.588    3.213   34.812   27.678    0.394    0.932 
 5356  230.531    3.588    3.213   34.812   27.678    0.394    0.932 
 5358  230.705    3.588    3.213   34.812   27.678    0.394    0.932 
 5360  230.878    3.588    3.213   34.812   27.678    0.417    0.932 
 5361  231.052    3.589    3.213   34.812   27.678    0.394    0.932 
 5362  231.225    3.589    3.214   34.815   27.681    0.371    0.932 
 5363  231.399    3.589    3.214   34.815   27.681    0.371    0.932 
 5365  231.746    3.589    3.214   34.815   27.681    0.371    0.932 
 5367  231.919    3.589    3.214   34.815   27.681    0.371    0.932 
 5368  232.093    3.589    3.214   34.815   27.681    0.371    0.932 
 5369  232.266    3.590    3.214   34.815   27.681    0.371    0.932 
 5371  232.440    3.590    3.214   34.815   27.681    0.371    0.932 
 5372  232.613    3.590    3.214   34.815   27.681    0.371    0.932 
 5373  232.787    3.590    3.214   34.815   27.681    0.371    0.932 
 5374  232.960    3.590    3.214   34.815   27.681    0.371    0.932 
 5375  233.134    3.591    3.214   34.815   27.681    0.371    0.932 
 5376  233.307    3.591    3.214   34.815   27.681    0.371    0.932 
 5378  233.654    3.591    3.214   34.815   27.681    0.371    0.932 
 5380  233.827    3.591    3.214   34.815   27.681    0.371    0.932 
 5382  234.001    3.591    3.214   34.815   27.681    0.371    0.932 
 5383  234.174    3.591    3.214   34.815   27.681    0.371    0.932 
 5385  234.348    3.592    3.214   34.813   27.679    0.371    0.932 
 5386  234.521    3.592    3.214   34.813   27.679    0.371    0.932 
 5388  234.695    3.592    3.214   34.813   27.679    0.394    0.932 
 5390  234.868    3.592    3.214   34.813   27.679    0.371    0.932 
 5392  235.042    3.593    3.214   34.812   27.678    0.394    0.932 
 5394  235.215    3.593    3.214   34.812   27.678    0.371    0.932 
 5397  235.389    3.593    3.214   34.812   27.678    0.371    0.932 
 5400  235.562    3.593    3.214   34.812   27.678    0.394    0.932 
 5403  235.736    3.593    3.214   34.812   27.678    0.394    0.932 
 5405  235.909    3.593    3.214   34.812   27.678    0.348    0.932 
 5408  236.083    3.594    3.214   34.812   27.678    0.371    0.932 
 5409  236.256    3.594    3.214   34.812   27.678    0.348    0.932 
 5412  236.430    3.594    3.214   34.812   27.678    0.371    0.932 
 5413  236.603    3.594    3.214   34.812   27.678    0.371    0.932 
 5417  236.777    3.595    3.214   34.812   27.678    0.417    0.932 
 5418  236.950    3.595    3.214   34.812   27.678    0.417    0.932 
 5420  237.124    3.595    3.214   34.812   27.678    0.394    0.932 
 5421  237.297    3.595    3.215   34.818   27.683    0.394    0.929 
 5423  237.471    3.595    3.215   34.818   27.683    0.394    0.929 
 5424  237.644    3.595    3.215   34.818   27.683    0.394    0.929 
 5426  237.817    3.595    3.215   34.818   27.683    0.394    0.929 
 5427  237.991    3.595    3.215   34.818   27.683    0.394    0.929 
 5428  238.164    3.595    3.215   34.818   27.683    0.394    0.929 
 5430  238.338    3.595    3.215   34.818   27.683    0.417    0.929 
 5431  238.511    3.595    3.215   34.818   27.683    0.417    0.929 
 5434  238.858    3.596    3.215   34.818   27.683    0.394    0.929 
 5436  239.032    3.596    3.215   34.818   27.683    0.394    0.929 
 5437  239.205    3.596    3.215   34.818   27.683    0.394    0.929 
 5438  239.379    3.596    3.215   34.818   27.683    0.394    0.929 
 5440  239.552    3.597    3.215   34.817   27.682    0.417    0.929 
 5441  239.726    3.597    3.215   34.817   27.682    0.417    0.929 
 5443  239.899    3.597    3.215   34.817   27.682    0.371    0.929 
 5445  240.073    3.598    3.215   34.816   27.681    0.417    0.929 
 5447  240.420    3.598    3.215   34.816   27.681    0.417    0.929 
 5450  240.593    3.599    3.215   34.816   27.681    0.394    0.929 
 5452  240.767    3.599    3.215   34.816   27.681    0.394    0.929 
 5456  240.940    3.599    3.215   34.816   27.681    0.394    0.929 
 5458  241.113    3.599    3.215   34.816   27.681    0.394    0.929 
 5462  241.287    3.600    3.215   34.816   27.681    0.371    0.929 
 5465  241.460    3.600    3.215   34.816   27.681    0.371    0.929 
 5468  241.634    3.600    3.215   34.816   27.681    0.371    0.929 
 5470  241.807    3.601    3.215   34.816   27.681    0.371    0.929 
 5472  241.981    3.601    3.215   34.816   27.681    0.371    0.929 
 5474  242.154    3.602    3.215   34.816   27.681    0.371    0.929 
 5475  242.328    3.603    3.216   34.817   27.681    0.371    0.929 
 5477  242.501    3.604    3.216   34.817   27.681    0.371    0.929 
 5478  242.675    3.605    3.216   34.817   27.681    0.371    0.929 
 5480  242.848    3.606    3.216   34.817   27.681    0.371    0.929 
 5481  243.022    3.606    3.216   34.817   27.681    0.371    0.929 
 5482  243.195    3.606    3.216   34.818   27.681    0.371    0.929 
 5484  243.369    3.606    3.216   34.818   27.681    0.371    0.929 
 5485  243.542    3.606    3.216   34.818   27.682    0.371    0.929 
 5486  243.716    3.606    3.216   34.818   27.682    0.371    0.929 
 5487  243.889    3.606    3.216   34.818   27.682    0.371    0.929 
 5490  244.063    3.606    3.216   34.818   27.682    0.371    0.929 
 5491  244.236    3.606    3.216   34.818   27.682    0.371    0.929 
 5493  244.409    3.605    3.216   34.818   27.682    0.371    0.925 
 5494  244.583    3.605    3.216   34.818   27.682    0.371    0.925 
 5499  244.756    3.605    3.216   34.818   27.682    0.394    0.925 
 5503  244.930    3.605    3.216   34.818   27.682    0.394    0.925 
 5507  245.103    3.605    3.216   34.818   27.682    0.394    0.925 
 5513  245.277    3.604    3.216   34.818   27.682    0.417    0.925 
 5515  245.450    3.604    3.216   34.818   27.682    0.394    0.925 
 5517  245.624    3.604    3.216   34.818   27.682    0.394    0.925 
 5519  245.797    3.604    3.216   34.818   27.682    0.394    0.925 
 5521  246.144    3.604    3.216   34.818   27.682    0.394    0.925 
 5523  246.318    3.604    3.216   34.818   27.682    0.394    0.925 
 5524  246.491    3.604    3.216   34.818   27.682    0.394    0.925 
 5525  246.665    3.604    3.216   34.818   27.682    0.394    0.925 
 5527  246.838    3.604    3.216   34.818   27.682    0.394    0.925 
 5528  247.012    3.604    3.216   34.818   27.682    0.394    0.925 
 5529  247.185    3.604    3.216   34.818   27.682    0.371    0.925 
 5530  247.358    3.604    3.216   34.818   27.682    0.394    0.925 
 5531  247.705    3.604    3.216   34.817   27.681    0.394    0.925 
 5533  247.879    3.604    3.216   34.817   27.681    0.394    0.925 
 5534  248.052    3.604    3.216   34.817   27.681    0.394    0.925 
 5535  248.226    3.604    3.216   34.817   27.681    0.394    0.925 
 5536  248.573    3.604    3.216   34.817   27.681    0.394    0.925 
 5538  248.746    3.604    3.216   34.817   27.681    0.371    0.925 
 5539  248.920    3.604    3.216   34.817   27.681    0.371    0.925 
 5540  249.093    3.604    3.216   34.817   27.681    0.371    0.925 
 5541  249.267    3.604    3.216   34.816   27.681    0.371    0.925 
 5542  249.440    3.604    3.216   34.816   27.681    0.371    0.925 
 5543  249.614    3.604    3.216   34.816   27.681    0.371    0.925 
 5545  249.787    3.604    3.216   34.816   27.681    0.371    0.925 
 5547  249.960    3.604    3.216   34.816   27.681    0.371    0.925 
 5549  250.134    3.604    3.216   34.816   27.681    0.394    0.925 
 5551  250.307    3.604    3.216   34.816   27.681    0.371    0.922 
 5555  250.481    3.604    3.216   34.816   27.681    0.371    0.922 
 5562  250.654    3.604    3.216   34.816   27.681    0.394    0.922 
 5568  250.828    3.605    3.216   34.816   27.681    0.371    0.922 
 5570  251.001    3.605    3.216   34.816   27.681    0.371    0.922 
 5573  251.175    3.605    3.216   34.816   27.681    0.371    0.922 
 5574  251.348    3.605    3.216   34.816   27.681    0.371    0.922 
 5576  251.522    3.605    3.216   34.816   27.681    0.371    0.922 
 5578  251.695    3.605    3.217   34.825   27.687    0.371    0.922 
 5580  251.869    3.605    3.217   34.825   27.687    0.371    0.922 
 5581  252.042    3.605    3.217   34.825   27.687    0.371    0.922 
 5582  252.216    3.605    3.217   34.825   27.687    0.371    0.922 
 5584  252.389    3.605    3.217   34.825   27.687    0.371    0.922 
 5585  252.562    3.605    3.217   34.825   27.687    0.371    0.922 
 5586  252.736    3.605    3.217   34.825   27.687    0.394    0.922 
 5589  253.083    3.605    3.217   34.825   27.687    0.394    0.922 
 5591  253.256    3.605    3.217   34.825   27.687    0.394    0.922 
 5592  253.430    3.605    3.217   34.825   27.687    0.394    0.922 
 5595  253.777    3.605    3.217   34.825   27.687    0.394    0.922 
 5598  253.950    3.605    3.217   34.825   27.687    0.394    0.922 
 5599  254.124    3.605    3.217   34.825   27.687    0.394    0.922 
 5600  254.297    3.605    3.217   34.825   27.687    0.394    0.922 
 5603  254.471    3.605    3.217   34.825   27.687    0.394    0.922 
 5605  254.644    3.605    3.217   34.824   27.687    0.394    0.922 
 5606  254.818    3.605    3.217   34.824   27.687    0.394    0.922 
 5609  254.991    3.605    3.217   34.824   27.687    0.371    0.922 
 5610  255.164    3.605    3.217   34.824   27.687    0.371    0.922 
 5613  255.338    3.605    3.217   34.824   27.687    0.371    0.922 
 5614  255.511    3.605    3.217   34.824   27.687    0.394    0.922 
 5616  255.685    3.605    3.217   34.824   27.687    0.371    0.922 
 5617  255.858    3.605    3.217   34.824   27.687    0.371    0.922 
 5618  256.032    3.605    3.217   34.824   27.686    0.371    0.922 
 5619  256.205    3.605    3.217   34.824   27.686    0.371    0.922 
 5621  256.379    3.605    3.217   34.824   27.686    0.348    0.922 
 5622  256.552    3.605    3.217   34.823   27.686    0.371    0.922 
 5623  256.726    3.605    3.217   34.823   27.686    0.371    0.922 
 5624  256.899    3.605    3.217   34.823   27.686    0.348    0.922 
 5626  257.073    3.605    3.217   34.823   27.686    0.324    0.922 
 5627  257.246    3.605    3.217   34.823   27.686    0.324    0.922 
 5629  257.419    3.605    3.217   34.823   27.686    0.324    0.922 
 5630  257.593    3.605    3.217   34.823   27.686    0.324    0.922 
 5631  257.766    3.605    3.217   34.823   27.686    0.348    0.922 
 5634  257.940    3.605    3.217   34.823   27.686    0.348    0.922 
 5636  258.113    3.605    3.217   34.823   27.685    0.348    0.919 
 5640  258.287    3.605    3.217   34.822   27.685    0.348    0.919 
 5646  258.460    3.605    3.217   34.822   27.685    0.394    0.919 
 5653  258.634    3.605    3.217   34.822   27.685    0.371    0.919 
 5658  258.807    3.605    3.217   34.822   27.685    0.371    0.919 
 5659  258.981    3.605    3.217   34.822   27.685    0.371    0.919 
 5661  259.154    3.605    3.217   34.822   27.685    0.394    0.919 
 5663  259.328    3.605    3.217   34.822   27.685    0.394    0.919 
 5664  259.501    3.605    3.217   34.822   27.685    0.394    0.919 
 5665  259.674    3.605    3.217   34.822   27.685    0.394    0.919 
 5667  259.848    3.605    3.217   34.822   27.685    0.394    0.919 
 5668  260.021    3.605    3.217   34.822   27.685    0.394    0.919 
 5669  260.195    3.605    3.217   34.821   27.685    0.394    0.919 
 5670  260.368    3.605    3.217   34.821   27.684    0.394    0.919 
 5671  260.542    3.605    3.217   34.821   27.684    0.371    0.919 
 5672  260.715    3.605    3.217   34.821   27.684    0.394    0.919 
 5674  260.889    3.605    3.217   34.821   27.684    0.394    0.919 
 5676  261.236    3.606    3.217   34.820   27.683    0.394    0.919 
 5677  261.409    3.606    3.217   34.820   27.683    0.371    0.919 
 5679  261.582    3.606    3.217   34.820   27.683    0.371    0.919 
 5681  261.756    3.606    3.217   34.820   27.683    0.371    0.919 
 5682  261.929    3.606    3.217   34.819   27.683    0.371    0.919 
 5684  262.103    3.606    3.217   34.819   27.683    0.371    0.919 
 5686  262.276    3.606    3.217   34.819   27.683    0.348    0.919 
 5688  262.450    3.606    3.217   34.819   27.683    0.348    0.919 
 5691  262.623    3.606    3.217   34.819   27.683    0.348    0.919 
 5693  262.797    3.606    3.217   34.819   27.682    0.348    0.915 
 5694  262.970    3.606    3.217   34.819   27.682    0.348    0.915 
 5697  263.144    3.606    3.217   34.819   27.682    0.371    0.915 
 5699  263.317    3.606    3.217   34.819   27.682    0.417    0.915 
 5701  263.491    3.606    3.217   34.819   27.682    0.417    0.915 
 5703  263.664    3.606    3.217   34.818   27.682    0.417    0.915 
 5705  263.837    3.607    3.217   34.818   27.682    0.417    0.915 
 5706  264.011    3.607    3.217   34.818   27.682    0.371    0.915 
 5708  264.184    3.607    3.217   34.818   27.682    0.371    0.915 
 5710  264.358    3.607    3.217   34.818   27.682    0.371    0.915 
 5711  264.531    3.607    3.217   34.818   27.682    0.348    0.915 
 5713  264.705    3.607    3.217   34.818   27.682    0.348    0.915 
 5714  264.878    3.607    3.217   34.818   27.682    0.348    0.915 
 5715  265.052    3.607    3.217   34.818   27.682    0.348    0.915 
 5717  265.225    3.607    3.217   34.818   27.682    0.348    0.915 
 5718  265.399    3.607    3.217   34.818   27.682    0.348    0.915 
 5719  265.572    3.607    3.218   34.824   27.686    0.348    0.915 
 5721  265.745    3.607    3.218   34.824   27.686    0.348    0.919 
 5722  265.919    3.607    3.218   34.824   27.686    0.348    0.919 
 5723  266.092    3.607    3.218   34.824   27.686    0.348    0.919 
 5724  266.266    3.608    3.218   34.824   27.686    0.371    0.919 
 5726  266.439    3.608    3.218   34.824   27.686    0.371    0.915 
 5727  266.613    3.608    3.218   34.824   27.686    0.394    0.915 
 5729  266.786    3.608    3.218   34.824   27.686    0.394    0.915 
 5730  266.960    3.609    3.218   34.824   27.686    0.394    0.915 
 5732  267.133    3.609    3.218   34.824   27.686    0.394    0.915 
 5734  267.307    3.610    3.218   34.824   27.686    0.394    0.915 
 5735  267.480    3.610    3.218   34.824   27.686    0.394    0.915 
 5738  267.653    3.610    3.218   34.824   27.686    0.394    0.915 
 5740  267.827    3.611    3.218   34.823   27.685    0.394    0.915 
 5742  268.000    3.611    3.218   34.823   27.685    0.371    0.915 
 5744  268.174    3.611    3.218   34.823   27.685    0.348    0.915 
 5745  268.347    3.611    3.218   34.823   27.685    0.348    0.915 
 5747  268.521    3.612    3.218   34.823   27.685    0.348    0.915 
 5750  268.694    3.612    3.218   34.823   27.685    0.371    0.915 
 5751  268.868    3.612    3.218   34.823   27.685    0.371    0.915 
 5753  269.041    3.612    3.218   34.823   27.685    0.371    0.915 
 5754  269.214    3.612    3.218   34.823   27.685    0.371    0.915 
 5756  269.388    3.612    3.218   34.823   27.685    0.371    0.915 
 5758  269.561    3.612    3.218   34.823   27.685    0.371    0.915 
 5760  269.735    3.613    3.218   34.823   27.685    0.348    0.915 
 5761  269.908    3.613    3.218   34.823   27.685    0.348    0.915 
 5762  270.082    3.613    3.218   34.823   27.685    0.348    0.915 
 5764  270.255    3.613    3.219   34.829   27.690    0.371    0.915 
 5766  270.429    3.613    3.219   34.829   27.690    0.348    0.915 
 5769  270.602    3.613    3.219   34.829   27.690    0.371    0.915 
 5771  270.776    3.613    3.219   34.829   27.690    0.371    0.915 
 5774  270.949    3.613    3.219   34.829   27.690    0.348    0.915 
 5776  271.122    3.613    3.219   34.829   27.690    0.348    0.915 
 5779  271.296    3.614    3.219   34.829   27.690    0.348    0.915 
 5781  271.469    3.614    3.219   34.829   27.690    0.348    0.915 
 5783  271.643    3.614    3.219   34.829   27.690    0.394    0.915 
 5785  271.816    3.614    3.219   34.829   27.690    0.394    0.915 
 5787  271.990    3.614    3.219   34.829   27.690    0.394    0.915 
 5789  272.163    3.614    3.219   34.829   27.690    0.394    0.915 
 5790  272.337    3.614    3.219   34.829   27.690    0.371    0.915 
 5791  272.510    3.614    3.219   34.829   27.690    0.371    0.915 
 5793  272.684    3.614    3.219   34.829   27.690    0.348    0.915 
 5795  272.857    3.614    3.219   34.829   27.690    0.371    0.915 
 5797  273.030    3.614    3.219   34.829   27.690    0.348    0.915 
 5798  273.204    3.614    3.219   34.829   27.689    0.348    0.915 
 5800  273.377    3.615    3.219   34.828   27.688    0.348    0.915 
 5801  273.551    3.615    3.219   34.827   27.688    0.348    0.915 
 5804  273.724    3.615    3.219   34.827   27.688    0.348    0.915 
 5805  273.898    3.615    3.219   34.827   27.688    0.348    0.915 
 5807  274.071    3.615    3.219   34.827   27.688    0.371    0.912 
 5809  274.245    3.615    3.219   34.827   27.688    0.371    0.912 
 5812  274.418    3.615    3.219   34.827   27.688    0.348    0.912 
 5814  274.591    3.615    3.219   34.827   27.688    0.371    0.912 
 5816  274.765    3.616    3.219   34.826   27.687    0.371    0.912 
 5818  274.938    3.616    3.219   34.826   27.687    0.371    0.912 
 5819  275.112    3.616    3.219   34.826   27.687    0.371    0.912 
 5821  275.285    3.616    3.219   34.825   27.687    0.371    0.912 
 5823  275.459    3.616    3.219   34.825   27.687    0.371    0.912 
 5824  275.632    3.616    3.219   34.825   27.687    0.371    0.912 
 5825  275.806    3.616    3.219   34.825   27.687    0.371    0.912 
 5827  275.979    3.616    3.219   34.825   27.686    0.348    0.912 
 5829  276.152    3.616    3.219   34.825   27.686    0.348    0.912 
 5830  276.326    3.616    3.219   34.825   27.686    0.348    0.912 
 5831  276.499    3.616    3.219   34.825   27.686    0.348    0.912 
 5833  276.673    3.616    3.219   34.825   27.686    0.348    0.912 
 5834  276.846    3.616    3.219   34.825   27.686    0.348    0.912 
 5836  277.020    3.616    3.219   34.825   27.686    0.348    0.912 
 5837  277.193    3.616    3.219   34.824   27.686    0.348    0.912 
 5838  277.367    3.616    3.219   34.824   27.686    0.348    0.912 
 5840  277.540    3.616    3.219   34.824   27.686    0.348    0.912 
 5841  277.713    3.616    3.219   34.824   27.686    0.348    0.912 
 5843  277.887    3.616    3.219   34.824   27.686    0.348    0.912 
 5844  278.060    3.616    3.219   34.824   27.686    0.348    0.912 
 5846  278.234    3.616    3.219   34.824   27.685    0.348    0.912 
 5848  278.407    3.616    3.219   34.824   27.685    0.371    0.912 
 5850  278.581    3.616    3.219   34.824   27.685    0.371    0.912 
 5853  278.754    3.616    3.219   34.824   27.685    0.371    0.912 
 5856  279.101    3.616    3.219   34.824   27.685    0.371    0.912 
 5859  279.275    3.616    3.219   34.824   27.685    0.371    0.912 
 5861  279.448    3.616    3.219   34.824   27.685    0.371    0.912 
 5863  279.621    3.616    3.219   34.824   27.685    0.371    0.912 
 5864  279.795    3.616    3.219   34.824   27.685    0.371    0.912 
 5867  279.968    3.616    3.219   34.824   27.685    0.394    0.912 
 5869  280.315    3.616    3.219   34.824   27.685    0.394    0.912 
 5871  280.489    3.616    3.219   34.824   27.685    0.394    0.912 
 5873  280.662    3.616    3.219   34.824   27.685    0.394    0.912 
 5874  280.836    3.616    3.220   34.834   27.693    0.394    0.912 
 5875  281.009    3.616    3.220   34.834   27.693    0.371    0.912 
 5876  281.182    3.616    3.220   34.834   27.693    0.371    0.912 
 5878  281.356    3.616    3.220   34.834   27.693    0.371    0.912 
 5879  281.529    3.616    3.220   34.834   27.693    0.371    0.912 
 5880  281.703    3.616    3.220   34.834   27.693    0.371    0.912 
 5882  281.876    3.616    3.220   34.834   27.693    0.324    0.912 
 5883  282.050    3.616    3.220   34.834   27.693    0.324    0.912 
 5885  282.223    3.616    3.220   34.834   27.693    0.371    0.912 
 5887  282.396    3.616    3.220   34.834   27.693    0.371    0.912 
 5888  282.570    3.616    3.220   34.834   27.693    0.324    0.912 
 5890  282.743    3.616    3.220   34.833   27.693    0.324    0.912 
 5892  282.917    3.616    3.220   34.833   27.693    0.324    0.908 
 5895  283.090    3.616    3.220   34.833   27.693    0.371    0.908 
 5898  283.264    3.616    3.220   34.833   27.693    0.371    0.908 
 5902  283.437    3.616    3.220   34.833   27.693    0.371    0.908 
 5907  283.611    3.616    3.220   34.833   27.693    0.371    0.908 
 5911  283.784    3.616    3.220   34.833   27.693    0.394    0.908 
 5914  283.957    3.616    3.220   34.833   27.693    0.394    0.908 
 5917  284.131    3.616    3.220   34.833   27.692    0.394    0.908 
 5919  284.304    3.616    3.220   34.833   27.692    0.394    0.908 
 5920  284.478    3.616    3.220   34.832   27.692    0.394    0.908 
 5922  284.651    3.616    3.220   34.832   27.692    0.394    0.908 
 5924  284.825    3.616    3.220   34.832   27.692    0.394    0.908 
 5926  284.998    3.616    3.220   34.832   27.692    0.394    0.908 
 5927  285.172    3.616    3.220   34.832   27.692    0.394    0.908 
 5929  285.345    3.616    3.220   34.832   27.692    0.394    0.908 
 5930  285.518    3.616    3.220   34.832   27.692    0.394    0.908 
 5931  285.692    3.616    3.220   34.832   27.692    0.394    0.908 
 5932  285.865    3.616    3.220   34.832   27.692    0.371    0.908 
 5933  286.039    3.616    3.220   34.832   27.692    0.394    0.908 
 5934  286.212    3.616    3.220   34.832   27.692    0.394    0.908 
 5935  286.386    3.616    3.220   34.831   27.691    0.394    0.908 
 5936  286.732    3.616    3.220   34.831   27.691    0.394    0.908 
 5938  286.906    3.616    3.220   34.831   27.691    0.394    0.908 
 5939  287.079    3.616    3.220   34.831   27.691    0.394    0.908 
 5940  287.253    3.616    3.220   34.831   27.691    0.394    0.908 
 5941  287.426    3.616    3.220   34.831   27.691    0.394    0.908 
 5942  287.600    3.616    3.220   34.831   27.691    0.371    0.908 
 5943  287.773    3.616    3.220   34.831   27.691    0.371    0.908 
 5944  287.947    3.616    3.220   34.831   27.691    0.371    0.908 
 5945  288.120    3.616    3.220   34.831   27.691    0.394    0.908 
 5946  288.293    3.616    3.220   34.830   27.691    0.394    0.908 
 5947  288.467    3.616    3.220   34.830   27.691    0.394    0.908 
 5949  288.814    3.616    3.220   34.830   27.690    0.394    0.908 
 5950  288.987    3.616    3.220   34.830   27.690    0.394    0.908 
 5952  289.161    3.616    3.220   34.830   27.690    0.394    0.908 
 5954  289.334    3.616    3.220   34.830   27.690    0.394    0.908 
 5955  289.508    3.616    3.220   34.830   27.690    0.394    0.908 
 5956  289.681    3.616    3.220   34.830   27.690    0.394    0.908 
 5960  289.854    3.616    3.220   34.830   27.690    0.394    0.908 
 5962  290.028    3.616    3.220   34.829   27.690    0.394    0.908 
 5967  290.201    3.616    3.220   34.829   27.690    0.394    0.908 
 5975  290.375    3.616    3.220   34.829   27.690    0.371    0.905 
 5979  290.548    3.616    3.220   34.829   27.690    0.371    0.905 
 5982  290.722    3.616    3.220   34.829   27.690    0.348    0.905 
 5985  290.895    3.616    3.220   34.829   27.689    0.348    0.905 
 5988  291.068    3.616    3.220   34.829   27.689    0.371    0.905 
 5990  291.242    3.616    3.220   34.829   27.689    0.348    0.905 
 5991  291.415    3.616    3.220   34.829   27.689    0.348    0.905 
 5992  291.589    3.616    3.220   34.829   27.689    0.348    0.905 
 5993  291.762    3.617    3.220   34.827   27.688    0.348    0.905 
 5994  291.936    3.617    3.220   34.827   27.688    0.371    0.905 
 5995  292.109    3.617    3.220   34.827   27.688    0.348    0.905 
 5997  292.282    3.617    3.220   34.827   27.688    0.371    0.905 
 5998  292.456    3.617    3.220   34.827   27.688    0.371    0.905 
 5999  292.629    3.617    3.220   34.827   27.688    0.371    0.905 
 6000  292.976    3.617    3.220   34.827   27.688    0.371    0.908 
 6001  293.150    3.617    3.220   34.827   27.688    0.371    0.905 
 6002  293.323    3.617    3.220   34.827   27.688    0.371    0.905 
 6003  293.497    3.617    3.220   34.827   27.687    0.371    0.905 
 6004  293.670    3.617    3.220   34.826   27.687    0.371    0.905 
 6005  293.843    3.617    3.220   34.826   27.687    0.371    0.905 
 6006  294.017    3.617    3.220   34.826   27.687    0.371    0.905 
 6008  294.364    3.617    3.220   34.826   27.687    0.371    0.905 
 6009  294.537    3.617    3.220   34.826   27.687    0.371    0.905 
 6011  294.711    3.617    3.220   34.826   27.687    0.371    0.905 
 6012  294.884    3.617    3.220   34.826   27.687    0.371    0.905 
 6014  295.231    3.617    3.220   34.826   27.687    0.371    0.905 
 6018  295.404    3.617    3.220   34.826   27.687    0.371    0.905 
 6020  295.578    3.617    3.220   34.826   27.687    0.371    0.905 
 6030  295.751    3.617    3.220   34.826   27.687    0.394    0.905 
 6033  295.925    3.617    3.220   34.826   27.687    0.394    0.905 
 6037  296.098    3.617    3.220   34.826   27.687    0.371    0.905 
 6039  296.271    3.617    3.220   34.826   27.687    0.371    0.905 
 6041  296.445    3.617    3.220   34.826   27.687    0.371    0.905 
 6043  296.618    3.617    3.220   34.826   27.687    0.371    0.905 
 6044  296.792    3.617    3.221   34.836   27.695    0.371    0.905 
 6045  296.965    3.617    3.221   34.836   27.695    0.371    0.905 
 6047  297.312    3.617    3.221   34.836   27.695    0.371    0.905 
 6049  297.485    3.617    3.221   34.836   27.695    0.371    0.905 
 6050  297.659    3.617    3.221   34.836   27.695    0.371    0.905 
 6051  297.832    3.617    3.221   34.836   27.695    0.371    0.905 
 6052  298.006    3.617    3.221   34.836   27.695    0.371    0.905 
 6054  298.179    3.617    3.221   34.836   27.695    0.371    0.905 
 6055  298.353    3.617    3.221   34.836   27.695    0.371    0.905 
 6056  298.526    3.617    3.221   34.836   27.695    0.371    0.905 
 6058  298.699    3.617    3.221   34.836   27.695    0.371    0.905 
 6059  298.873    3.617    3.221   34.836   27.695    0.371    0.905 
 6061  299.046    3.617    3.221   34.835   27.695    0.371    0.905 
 6062  299.220    3.617    3.221   34.835   27.694    0.371    0.905 
 6064  299.393    3.617    3.221   34.835   27.694    0.371    0.905 
 6066  299.567    3.617    3.221   34.835   27.694    0.371    0.905 
 6067  299.740    3.617    3.221   34.835   27.694    0.371    0.905 
 6069  299.913    3.617    3.221   34.835   27.694    0.371    0.905 
 6071  300.087    3.617    3.221   34.835   27.694    0.371    0.905 
 6073  300.260    3.617    3.221   34.835   27.694    0.348    0.905 
 6075  300.434    3.617    3.221   34.835   27.694    0.348    0.905 
 6079  300.781    3.617    3.221   34.835   27.694    0.324    0.902 
 6082  300.954    3.617    3.221   34.834   27.694    0.348    0.902 
 6083  301.127    3.617    3.221   34.834   27.694    0.348    0.902 
 6084  301.301    3.617    3.221   34.834   27.694    0.348    0.902 
 6086  301.474    3.617    3.221   34.834   27.693    0.348    0.902 
 6087  301.648    3.617    3.221   34.834   27.693    0.348    0.902 
 6089  301.821    3.617    3.221   34.834   27.693    0.324    0.902 
 6090  301.995    3.617    3.221   34.834   27.693    0.348    0.902 
 6091  302.168    3.617    3.221   34.834   27.693    0.348    0.902 
 6094  302.341    3.617    3.221   34.834   27.693    0.348    0.902 
 6095  302.515    3.617    3.221   34.834   27.693    0.348    0.902 
 6096  302.688    3.617    3.221   34.834   27.693    0.348    0.902 
 6097  302.862    3.617    3.221   34.833   27.693    0.348    0.902 
 6099  303.035    3.617    3.221   34.833   27.693    0.371    0.902 
 6100  303.209    3.617    3.221   34.833   27.693    0.371    0.902 
 6101  303.382    3.617    3.221   34.833   27.693    0.371    0.902 
 6103  303.555    3.617    3.221   34.833   27.693    0.371    0.902 
 6104  303.729    3.617    3.221   34.833   27.693    0.371    0.902 
 6107  303.902    3.617    3.221   34.833   27.693    0.394    0.902 
 6108  304.076    3.617    3.221   34.833   27.693    0.394    0.902 
 6110  304.249    3.617    3.221   34.833   27.693    0.394    0.902 
 6112  304.423    3.617    3.221   34.833   27.693    0.394    0.902 
 6115  304.596    3.617    3.221   34.833   27.693    0.394    0.902 
 6117  304.769    3.617    3.221   34.833   27.693    0.394    0.902 
 6120  304.943    3.616    3.221   34.833   27.693    0.394    0.902 
 6124  305.116    3.616    3.221   34.833   27.693    0.371    0.902 
 6126  305.290    3.616    3.221   34.833   27.693    0.348    0.902 
 6128  305.463    3.616    3.221   34.833   27.693    0.348    0.902 
 6131  305.637    3.616    3.221   34.833   27.693    0.348    0.902 
 6133  305.810    3.616    3.221   34.833   27.693    0.371    0.902 
 6135  305.983    3.616    3.221   34.833   27.693    0.371    0.902 
 6136  306.157    3.616    3.221   34.833   27.692    0.371    0.902 
 6138  306.330    3.616    3.221   34.833   27.692    0.348    0.902 
 6139  306.504    3.616    3.221   34.833   27.692    0.348    0.902 
 6141  306.677    3.616    3.221   34.833   27.692    0.348    0.902 
 6143  306.851    3.616    3.221   34.833   27.692    0.371    0.902 
 6144  307.024    3.616    3.221   34.833   27.692    0.371    0.902 
 6145  307.197    3.616    3.221   34.833   27.692    0.371    0.902 
 6146  307.371    3.616    3.221   34.833   27.692    0.371    0.902 
 6147  307.544    3.616    3.221   34.832   27.692    0.371    0.902 
 6149  307.718    3.615    3.221   34.832   27.692    0.371    0.902 
 6151  307.891    3.615    3.221   34.832   27.692    0.371    0.902 
 6152  308.064    3.615    3.221   34.832   27.692    0.371    0.902 
 6153  308.238    3.615    3.221   34.832   27.692    0.371    0.902 
 6154  308.411    3.615    3.221   34.832   27.692    0.371    0.902 
 6155  308.585    3.615    3.221   34.832   27.692    0.371    0.902 
 6156  308.758    3.615    3.221   34.832   27.692    0.371    0.902 
 6158  308.932    3.615    3.221   34.833   27.692    0.371    0.902 
 6159  309.105    3.615    3.221   34.833   27.693    0.371    0.902 
 6160  309.278    3.615    3.221   34.833   27.693    0.371    0.902 
 6163  309.452    3.615    3.221   34.833   27.693    0.371    0.902 
 6165  309.625    3.615    3.221   34.833   27.693    0.371    0.902 
 6167  309.799    3.614    3.221   34.833   27.693    0.371    0.898 
 6171  309.972    3.614    3.221   34.833   27.693    0.371    0.898 
 6179  310.146    3.613    3.221   34.833   27.693    0.371    0.898 
 6185  310.319    3.613    3.221   34.833   27.693    0.371    0.898 
 6189  310.492    3.613    3.221   34.833   27.693    0.348    0.898 
 6192  310.666    3.613    3.221   34.833   27.693    0.371    0.902 
 6193  310.839    3.613    3.221   34.833   27.693    0.371    0.898 
 6195  311.013    3.613    3.221   34.833   27.693    0.371    0.898 
 6197  311.186    3.613    3.221   34.833   27.693    0.371    0.898 
 6198  311.359    3.613    3.221   34.833   27.693    0.371    0.902 
 6199  311.533    3.613    3.221   34.833   27.693    0.394    0.898 
 6200  311.706    3.613    3.221   34.833   27.693    0.394    0.898 
 6201  311.880    3.613    3.221   34.833   27.693    0.394    0.902 
 6202  312.053    3.613    3.221   34.833   27.693    0.394    0.902 
 6203  312.227    3.613    3.221   34.833   27.693    0.394    0.902 
 6204  312.400    3.613    3.221   34.833   27.693    0.394    0.902 
 6206  312.573    3.613    3.221   34.832   27.693    0.394    0.902 
 6207  312.747    3.613    3.221   34.832   27.693    0.394    0.898 
 6208  312.920    3.613    3.221   34.832   27.692    0.394    0.902 
 6209  313.094    3.613    3.221   34.832   27.692    0.394    0.902 
 6210  313.267    3.613    3.221   34.832   27.692    0.394    0.902 
 6211  313.441    3.613    3.221   34.832   27.692    0.394    0.902 
 6212  313.614    3.613    3.221   34.832   27.692    0.394    0.902 
 6213  313.787    3.613    3.221   34.832   27.692    0.394    0.898 
 6214  313.961    3.613    3.221   34.832   27.692    0.371    0.898 
 6216  314.134    3.613    3.221   34.832   27.692    0.371    0.898 
 6218  314.308    3.613    3.221   34.831   27.692    0.371    0.898 
 6219  314.481    3.613    3.221   34.831   27.692    0.371    0.898 
 6220  314.654    3.613    3.221   34.831   27.692    0.371    0.898 
 6222  314.828    3.614    3.221   34.830   27.691    0.371    0.898 
 6224  315.001    3.614    3.221   34.830   27.691    0.394    0.898 
 6227  315.175    3.614    3.221   34.830   27.691    0.371    0.898 
 6230  315.348    3.614    3.221   34.830   27.691    0.348    0.898 
 6234  315.522    3.614    3.221   34.830   27.691    0.348    0.898 
 6237  315.695    3.614    3.221   34.830   27.691    0.394    0.898 
 6240  315.868    3.614    3.221   34.830   27.691    0.394    0.898 
 6242  316.042    3.614    3.221   34.830   27.691    0.348    0.898 
 6245  316.215    3.614    3.221   34.830   27.691    0.348    0.898 
 6248  316.389    3.615    3.221   34.830   27.691    0.348    0.898 
 6250  316.562    3.615    3.221   34.830   27.691    0.348    0.898 
 6252  316.735    3.615    3.222   34.839   27.698    0.348    0.898 
 6254  316.909    3.615    3.222   34.839   27.698    0.348    0.898 
 6256  317.082    3.615    3.222   34.839   27.698    0.348    0.898 
 6258  317.256    3.615    3.222   34.839   27.698    0.348    0.898 
 6260  317.429    3.615    3.222   34.839   27.698    0.324    0.898 
 6262  317.603    3.615    3.222   34.839   27.698    0.324    0.898 
 6263  317.776    3.615    3.222   34.839   27.698    0.348    0.898 
 6264  317.949    3.615    3.222   34.839   27.698    0.348    0.898 
 6267  318.123    3.615    3.222   34.839   27.698    0.324    0.898 
 6269  318.296    3.615    3.222   34.839   27.698    0.348    0.898 
 6271  318.470    3.615    3.222   34.839   27.698    0.348    0.898 
 6273  318.816    3.615    3.222   34.839   27.698    0.348    0.898 
 6276  318.990    3.615    3.222   34.839   27.697    0.348    0.898 
 6277  319.163    3.615    3.222   34.839   27.697    0.324    0.898 
 6278  319.337    3.615    3.222   34.839   27.697    0.301    0.898 
 6279  319.510    3.615    3.222   34.839   27.697    0.324    0.898 
 6281  319.683    3.615    3.222   34.838   27.697    0.348    0.898 
 6282  319.857    3.615    3.222   34.838   27.697    0.348    0.898 
 6284  320.030    3.616    3.222   34.837   27.696    0.348    0.898 
 6285  320.204    3.616    3.222   34.837   27.696    0.324    0.898 
 6287  320.377    3.616    3.222   34.837   27.696    0.348    0.898 
 6288  320.551    3.616    3.222   34.837   27.696    0.348    0.898 
 6289  320.724    3.616    3.222   34.837   27.696    0.348    0.898 
 6291  320.897    3.616    3.222   34.837   27.696    0.348    0.898 
 6293  321.071    3.616    3.222   34.837   27.696    0.348    0.898 
 6295  321.244    3.616    3.222   34.837   27.695    0.348    0.898 
 6296  321.418    3.616    3.222   34.836   27.695    0.348    0.898 
 6299  321.591    3.616    3.222   34.836   27.695    0.348    0.898 
 6302  321.764    3.617    3.222   34.835   27.694    0.348    0.898 
 6304  321.938    3.617    3.222   34.835   27.694    0.348    0.898 
 6306  322.111    3.617    3.222   34.835   27.694    0.371    0.898 
 6309  322.285    3.617    3.222   34.835   27.694    0.371    0.898 
 6311  322.458    3.617    3.222   34.835   27.694    0.371    0.898 
 6313  322.631    3.617    3.222   34.835   27.694    0.371    0.898 
 6316  322.805    3.617    3.222   34.835   27.694    0.371    0.898 
 6318  322.978    3.617    3.222   34.834   27.694    0.348    0.898 
 6319  323.152    3.617    3.222   34.834   27.694    0.348    0.898 
 6321  323.325    3.617    3.222   34.834   27.694    0.348    0.898 
 6323  323.499    3.617    3.222   34.834   27.694    0.348    0.898 
 6325  323.672    3.617    3.222   34.834   27.693    0.371    0.898 
 6326  323.845    3.617    3.222   34.834   27.693    0.394    0.898 
 6327  324.019    3.617    3.222   34.834   27.693    0.371    0.895 
 6330  324.192    3.617    3.222   34.834   27.693    0.348    0.895 
 6331  324.366    3.617    3.222   34.834   27.693    0.348    0.898 
 6334  324.712    3.617    3.222   34.834   27.693    0.371    0.898 
 6338  324.886    3.617    3.222   34.833   27.693    0.394    0.895 
 6342  325.059    3.617    3.222   34.833   27.693    0.394    0.898 
 6345  325.233    3.617    3.222   34.833   27.693    0.394    0.898 
 6350  325.406    3.617    3.222   34.833   27.693    0.394    0.898 
 6354  325.579    3.617    3.222   34.833   27.693    0.394    0.895 
 6358  325.753    3.617    3.222   34.833   27.693    0.371    0.895 
 6360  325.926    3.617    3.222   34.833   27.693    0.371    0.895 
 6362  326.100    3.617    3.222   34.833   27.692    0.371    0.895 
 6363  326.273    3.617    3.222   34.833   27.692    0.371    0.895 
 6365  326.447    3.618    3.222   34.832   27.691    0.371    0.895 
 6366  326.620    3.618    3.222   34.831   27.691    0.348    0.895 
 6368  326.967    3.618    3.222   34.831   27.691    0.348    0.895 
 6370  327.140    3.618    3.222   34.831   27.691    0.348    0.895 
 6371  327.314    3.618    3.222   34.831   27.691    0.348    0.895 
 6372  327.487    3.618    3.222   34.831   27.691    0.348    0.895 
 6373  327.660    3.618    3.222   34.831   27.691    0.348    0.895 
 6374  327.834    3.618    3.222   34.831   27.691    0.348    0.895 
 6375  328.007    3.618    3.222   34.831   27.691    0.348    0.895 
 6376  328.181    3.618    3.222   34.831   27.691    0.348    0.895 
 6377  328.354    3.618    3.222   34.831   27.691    0.348    0.895 
 6378  328.527    3.618    3.222   34.831   27.691    0.348    0.895 
 6380  328.874    3.618    3.222   34.831   27.691    0.348    0.895 
 6382  329.048    3.618    3.223   34.841   27.699    0.348    0.895 
 6383  329.221    3.618    3.223   34.841   27.699    0.348    0.895 
 6385  329.394    3.618    3.223   34.841   27.699    0.348    0.895 
 6386  329.568    3.618    3.223   34.841   27.699    0.348    0.895 
 6387  329.741    3.618    3.223   34.841   27.699    0.348    0.895 
 6390  329.915    3.618    3.223   34.841   27.699    0.348    0.895 
 6393  330.088    3.618    3.223   34.841   27.699    0.348    0.895 
 6396  330.261    3.618    3.223   34.841   27.699    0.348    0.895 
 6401  330.435    3.618    3.223   34.841   27.699    0.348    0.895 
 6407  330.608    3.618    3.223   34.841   27.699    0.371    0.895 
 6412  330.782    3.618    3.223   34.841   27.699    0.371    0.895 
 6415  330.955    3.618    3.223   34.841   27.699    0.371    0.895 
 6417  331.128    3.618    3.223   34.841   27.699    0.371    0.895 
 6419  331.302    3.618    3.223   34.841   27.699    0.371    0.892 
 6420  331.475    3.618    3.223   34.841   27.699    0.371    0.892 
 6421  331.649    3.618    3.223   34.841   27.699    0.371    0.892 
 6423  331.822    3.618    3.223   34.841   27.699    0.348    0.892 
 6425  331.996    3.619    3.223   34.839   27.698    0.371    0.892 
 6426  332.169    3.619    3.223   34.839   27.698    0.371    0.892 
 6427  332.342    3.619    3.223   34.839   27.697    0.371    0.892 
 6428  332.516    3.619    3.223   34.839   27.697    0.371    0.892 
 6429  332.689    3.619    3.223   34.839   27.697    0.371    0.892 
 6430  332.863    3.619    3.223   34.839   27.697    0.371    0.892 
 6432  333.209    3.619    3.223   34.839   27.697    0.371    0.892 
 6434  333.383    3.619    3.223   34.839   27.697    0.371    0.892 
 6435  333.730    3.619    3.223   34.839   27.697    0.371    0.892 
 6437  334.076    3.619    3.223   34.838   27.697    0.371    0.892 
 6439  334.250    3.619    3.223   34.838   27.697    0.371    0.892 
 6440  334.423    3.619    3.223   34.838   27.697    0.371    0.892 
 6442  334.597    3.619    3.223   34.838   27.697    0.371    0.892 
 6443  334.770    3.619    3.223   34.838   27.697    0.371    0.892 
 6444  334.943    3.619    3.223   34.838   27.696    0.371    0.892 
 6446  335.117    3.619    3.223   34.838   27.696    0.371    0.892 
 6448  335.290    3.619    3.223   34.838   27.696    0.371    0.892 
 6450  335.464    3.619    3.223   34.838   27.696    0.371    0.892 
 6474  335.637    3.619    3.223   34.838   27.696    0.394    0.892 
 6476  335.810    3.619    3.223   34.838   27.696    0.394    0.892 
 6477  335.984    3.619    3.223   34.838   27.696    0.394    0.892 
 6480  336.157    3.618    3.223   34.838   27.696    0.371    0.892 
 6481  336.331    3.618    3.223   34.838   27.696    0.371    0.892 
 6483  336.504    3.618    3.223   34.838   27.696    0.371    0.892 
 6484  336.677    3.618    3.223   34.838   27.696    0.394    0.892 
 6486  337.024    3.618    3.223   34.837   27.696    0.371    0.892 
 6487  337.198    3.618    3.223   34.837   27.696    0.371    0.892 
 6489  337.544    3.618    3.223   34.837   27.696    0.371    0.892 
 6491  337.718    3.618    3.223   34.837   27.696    0.348    0.889 
 6492  337.891    3.618    3.223   34.837   27.696    0.371    0.889 
 6493  338.065    3.618    3.223   34.837   27.696    0.348    0.889 
 6494  338.238    3.618    3.223   34.837   27.696    0.348    0.889 
 6496  338.411    3.618    3.223   34.837   27.696    0.348    0.889 
 6498  338.758    3.618    3.223   34.837   27.696    0.371    0.889 
 6501  338.932    3.618    3.223   34.837   27.696    0.371    0.889 
 6503  339.105    3.618    3.223   34.837   27.695    0.324    0.889 
 6504  339.278    3.618    3.223   34.837   27.695    0.371    0.889 
 6507  339.452    3.618    3.223   34.836   27.695    0.348    0.892 
 6509  339.625    3.618    3.223   34.836   27.695    0.371    0.892 
 6511  339.799    3.618    3.223   34.836   27.695    0.371    0.892 
 6514  339.972    3.618    3.223   34.836   27.695    0.371    0.892 
 6515  340.145    3.618    3.223   34.836   27.695    0.394    0.892 
 6517  340.319    3.618    3.223   34.836   27.695    0.394    0.892 
 6518  340.492    3.618    3.223   34.836   27.695    0.417    0.892 
 6520  340.666    3.618    3.223   34.836   27.695    0.394    0.889 
 6522  340.839    3.618    3.223   34.836   27.695    0.371    0.889 
 6523  341.012    3.618    3.223   34.836   27.695    0.371    0.889 
 6524  341.186    3.618    3.223   34.836   27.695    0.371    0.889 
 6526  341.359    3.618    3.223   34.835   27.694    0.394    0.889 
 6527  341.533    3.618    3.223   34.835   27.694    0.394    0.889 
 6529  341.706    3.618    3.223   34.835   27.694    0.371    0.889 
 6530  341.879    3.618    3.223   34.835   27.694    0.371    0.889 
 6531  342.053    3.618    3.223   34.835   27.694    0.371    0.889 
 6533  342.226    3.618    3.223   34.835   27.694    0.348    0.889 
 6534  342.400    3.618    3.223   34.835   27.694    0.348    0.889 
 6537  342.573    3.618    3.223   34.835   27.694    0.348    0.889 
 6539  342.746    3.618    3.223   34.835   27.694    0.348    0.889 
 6543  342.920    3.618    3.223   34.835   27.694    0.348    0.889 
 6545  343.093    3.618    3.223   34.835   27.694    0.348    0.889 
 6549  343.267    3.619    3.223   34.833   27.693    0.324    0.889 
 6552  343.440    3.619    3.223   34.833   27.693    0.324    0.889 
 6553  343.613    3.619    3.223   34.833   27.693    0.348    0.889 
 6557  343.787    3.619    3.223   34.833   27.693    0.324    0.889 
 6559  343.960    3.619    3.223   34.833   27.692    0.324    0.889 
 6561  344.133    3.619    3.223   34.833   27.692    0.324    0.889 
 6563  344.307    3.619    3.223   34.833   27.692    0.324    0.889 
 6564  344.480    3.619    3.223   34.833   27.692    0.324    0.889 
 6566  344.654    3.619    3.223   34.833   27.692    0.324    0.889 
 6567  344.827    3.619    3.223   34.833   27.692    0.324    0.889 
 6570  345.000    3.619    3.223   34.833   27.692    0.348    0.889 
 6573  345.174    3.619    3.223   34.833   27.692    0.371    0.889 
 6575  345.347    3.619    3.223   34.833   27.692    0.348    0.889 
 6578  345.521    3.619    3.223   34.833   27.692    0.348    0.889 
 6579  345.694    3.619    3.223   34.833   27.692    0.371    0.889 
 6581  345.867    3.619    3.223   34.833   27.692    0.371    0.889 
 6583  346.041    3.619    3.223   34.833   27.692    0.371    0.889 
 6585  346.214    3.619    3.224   34.843   27.700    0.371    0.889 
 6587  346.388    3.619    3.224   34.843   27.700    0.371    0.889 
 6588  346.561    3.619    3.224   34.843   27.700    0.371    0.889 
 6591  346.734    3.619    3.224   34.843   27.700    0.371    0.889 
 6592  346.908    3.619    3.224   34.843   27.700    0.371    0.889 
 6593  347.081    3.619    3.224   34.843   27.700    0.371    0.889 
 6595  347.255    3.619    3.224   34.843   27.700    0.371    0.889 
 6596  347.428    3.619    3.224   34.843   27.700    0.371    0.889 
 6597  347.601    3.619    3.224   34.843   27.700    0.371    0.889 
 6599  347.775    3.619    3.224   34.843   27.700    0.371    0.889 
 6601  347.948    3.619    3.224   34.843   27.700    0.371    0.889 
 6602  348.122    3.620    3.224   34.842   27.699    0.371    0.889 
 6603  348.295    3.620    3.224   34.842   27.699    0.371    0.889 
 6604  348.468    3.620    3.224   34.841   27.699    0.371    0.889 
 6606  348.642    3.620    3.224   34.841   27.699    0.348    0.889 
 6608  348.815    3.620    3.224   34.841   27.699    0.348    0.889 
 6610  348.988    3.620    3.224   34.841   27.699    0.371    0.889 
 6611  349.162    3.620    3.224   34.841   27.699    0.348    0.889 
 6613  349.335    3.620    3.224   34.841   27.699    0.324    0.889 
 6616  349.509    3.620    3.224   34.841   27.699    0.324    0.889 
 6619  349.682    3.620    3.224   34.841   27.698    0.324    0.889 
 6622  349.855    3.620    3.224   34.841   27.698    0.324    0.889 
 6627  350.029    3.620    3.224   34.841   27.698    0.324    0.885 
 6632  350.202    3.620    3.224   34.841   27.698    0.324    0.885 
 6635  350.376    3.620    3.224   34.840   27.698    0.324    0.885 
 6637  350.549    3.620    3.224   34.840   27.698    0.324    0.885 
 6639  350.722    3.620    3.224   34.840   27.698    0.324    0.885 
 6641  350.896    3.620    3.224   34.840   27.698    0.348    0.885 
 6643  351.069    3.621    3.224   34.839   27.697    0.394    0.885 
 6644  351.243    3.621    3.224   34.839   27.697    0.394    0.885 
 6645  351.416    3.621    3.224   34.839   27.697    0.394    0.885 
 6647  351.589    3.621    3.224   34.839   27.697    0.394    0.885 
 6648  351.763    3.621    3.224   34.839   27.697    0.394    0.885 
 6649  351.936    3.621    3.224   34.839   27.697    0.394    0.885 
 6650  352.110    3.621    3.224   34.838   27.697    0.394    0.885 
 6651  352.283    3.621    3.224   34.838   27.696    0.394    0.885 
 6652  352.456    3.621    3.224   34.838   27.696    0.394    0.889 
 6653  352.630    3.621    3.224   34.838   27.696    0.394    0.889 
 6654  352.803    3.621    3.224   34.838   27.696    0.394    0.885 
 6656  352.976    3.621    3.224   34.838   27.696    0.394    0.885 
 6657  353.150    3.622    3.224   34.838   27.696    0.394    0.889 
 6658  353.323    3.622    3.224   34.838   27.696    0.394    0.885 
 6660  353.497    3.622    3.224   34.838   27.696    0.394    0.885 
 6661  353.670    3.622    3.224   34.838   27.696    0.394    0.885 
 6664  353.843    3.622    3.224   34.838   27.696    0.348    0.885 
 6665  354.017    3.622    3.224   34.838   27.696    0.348    0.885 
 6669  354.190    3.622    3.224   34.838   27.696    0.348    0.885 
 6673  354.364    3.623    3.224   34.838   27.696    0.348    0.885 
 6676  354.537    3.624    3.224   34.838   27.696    0.348    0.885 
 6679  354.710    3.625    3.225   34.844   27.700    0.348    0.885 
 6682  354.884    3.625    3.225   34.844   27.700    0.348    0.885 
 6684  355.230    3.625    3.225   34.844   27.700    0.371    0.885 
 6687  355.404    3.625    3.225   34.844   27.700    0.371    0.885 
 6689  355.577    3.625    3.225   34.844   27.700    0.371    0.885 
 6690  355.751    3.625    3.225   34.844   27.700    0.371    0.885 
 6692  355.924    3.625    3.225   34.844   27.700    0.371    0.885 
 6693  356.097    3.625    3.225   34.844   27.700    0.371    0.885 
 6695  356.271    3.625    3.225   34.844   27.700    0.371    0.885 
 6697  356.444    3.625    3.225   34.844   27.700    0.371    0.885 
 6698  356.618    3.625    3.225   34.844   27.700    0.371    0.885 
 6701  356.791    3.625    3.225   34.844   27.700    0.394    0.885 
 6702  356.964    3.625    3.225   34.844   27.700    0.394    0.885 
 6704  357.138    3.625    3.225   34.844   27.700    0.394    0.885 
 6707  357.311    3.625    3.225   34.844   27.700    0.394    0.885 
 6709  357.484    3.625    3.225   34.844   27.700    0.394    0.885 
 6714  357.658    3.625    3.225   34.844   27.700    0.371    0.885 
 6717  357.831    3.625    3.225   34.844   27.700    0.371    0.885 
 6720  358.005    3.625    3.225   34.843   27.700    0.371    0.885 
 6723  358.178    3.624    3.225   34.843   27.700    0.371    0.885 
 6725  358.351    3.624    3.225   34.843   27.700    0.371    0.885 
 6728  358.525    3.624    3.225   34.843   27.700    0.348    0.885 
 6730  358.698    3.624    3.225   34.843   27.700    0.348    0.885 
 6732  358.872    3.624    3.225   34.843   27.700    0.348    0.885 
 6733  359.045    3.624    3.225   34.843   27.700    0.348    0.885 
 6735  359.218    3.624    3.225   34.843   27.700    0.348    0.885 
 6737  359.392    3.624    3.225   34.843   27.700    0.348    0.885 
 6738  359.565    3.624    3.225   34.843   27.700    0.348    0.885 
 6740  359.738    3.624    3.225   34.843   27.700    0.348    0.885 
 6742  359.912    3.624    3.225   34.843   27.700    0.348    0.885 
 6743  360.085    3.624    3.225   34.843   27.700    0.348    0.885 
 6745  360.259    3.624    3.225   34.843   27.700    0.348    0.885 
 6746  360.432    3.624    3.225   34.843   27.700    0.348    0.885 
 6748  360.605    3.624    3.225   34.843   27.700    0.348    0.885 
 6750  360.779    3.624    3.225   34.843   27.699    0.348    0.885 
 6752  360.952    3.624    3.225   34.842   27.699    0.348    0.885 
 6754  361.126    3.624    3.225   34.842   27.699    0.348    0.885 
 6755  361.299    3.624    3.225   34.842   27.699    0.348    0.885 
 6757  361.472    3.624    3.225   34.842   27.699    0.348    0.885 
 6759  361.646    3.624    3.225   34.842   27.699    0.348    0.885 
 6761  361.819    3.624    3.225   34.842   27.699    0.371    0.885 
 6763  361.992    3.624    3.225   34.842   27.699    0.371    0.885 
 6765  362.166    3.624    3.225   34.842   27.699    0.371    0.885 
 6767  362.339    3.625    3.225   34.841   27.698    0.371    0.882 
 6769  362.513    3.625    3.225   34.841   27.698    0.371    0.882 
 6772  362.686    3.625    3.225   34.840   27.698    0.371    0.882 
 6774  362.859    3.625    3.225   34.840   27.698    0.371    0.882 
 6776  363.033    3.625    3.225   34.840   27.698    0.394    0.882 
 6779  363.206    3.625    3.225   34.840   27.698    0.394    0.882 
 6783  363.379    3.625    3.225   34.840   27.697    0.394    0.882 
 6785  363.553    3.625    3.225   34.840   27.697    0.394    0.882 
 6790  363.726    3.625    3.225   34.840   27.697    0.394    0.882 
 6794  363.900    3.625    3.225   34.840   27.697    0.394    0.882 
 6796  364.073    3.625    3.225   34.840   27.697    0.371    0.882 
 6799  364.246    3.625    3.225   34.840   27.697    0.324    0.882 
 6801  364.420    3.625    3.225   34.839   27.697    0.324    0.882 
 6804  364.593    3.625    3.225   34.839   27.697    0.324    0.882 
 6805  364.767    3.625    3.225   34.839   27.697    0.324    0.882 
 6806  364.940    3.625    3.225   34.839   27.697    0.324    0.882 
 6808  365.113    3.625    3.225   34.839   27.697    0.324    0.882 
 6809  365.460    3.625    3.225   34.839   27.697    0.324    0.882 
 6811  365.807    3.625    3.225   34.839   27.696    0.324    0.882 
 6812  365.980    3.625    3.225   34.839   27.696    0.348    0.882 
 6813  366.154    3.625    3.225   34.839   27.696    0.348    0.882 
 6815  366.327    3.625    3.225   34.838   27.696    0.348    0.882 
 6816  366.500    3.625    3.225   34.838   27.696    0.348    0.882 
 6817  366.674    3.625    3.225   34.838   27.696    0.348    0.882 
 6818  367.020    3.625    3.225   34.838   27.696    0.348    0.882 
 6820  367.194    3.625    3.225   34.838   27.696    0.348    0.882 
 6821  367.367    3.625    3.225   34.838   27.696    0.348    0.882 
 6823  367.714    3.625    3.225   34.838   27.696    0.348    0.882 
 6825  367.887    3.625    3.225   34.838   27.695    0.348    0.882 
 6828  368.061    3.625    3.225   34.838   27.695    0.348    0.882 
 6829  368.234    3.625    3.225   34.837   27.695    0.348    0.882 
 6832  368.407    3.625    3.225   34.837   27.695    0.324    0.882 
 6857  368.581    3.625    3.225   34.837   27.695    0.371    0.882 
 6859  368.754    3.625    3.225   34.837   27.695    0.371    0.882 
 6861  368.928    3.625    3.225   34.837   27.695    0.394    0.882 
 6862  369.101    3.625    3.225   34.837   27.695    0.394    0.882 
 6863  369.274    3.625    3.225   34.837   27.695    0.394    0.882 
 6864  369.448    3.625    3.225   34.837   27.695    0.394    0.882 
 6865  369.621    3.625    3.225   34.837   27.695    0.371    0.882 
 6866  369.794    3.625    3.225   34.837   27.695    0.371    0.882 
 6867  369.968    3.625    3.225   34.836   27.695    0.371    0.882 
 6868  370.141    3.625    3.225   34.836   27.694    0.371    0.882 
 6869  370.315    3.625    3.225   34.836   27.694    0.371    0.882 
 6870  370.488    3.625    3.225   34.836   27.694    0.371    0.882 
 6871  370.661    3.625    3.225   34.836   27.694    0.371    0.882 
 6872  370.835    3.625    3.225   34.836   27.694    0.371    0.882 
 6873  371.008    3.625    3.225   34.836   27.694    0.371    0.882 
 6874  371.181    3.625    3.225   34.836   27.694    0.371    0.882 
 6875  371.355    3.625    3.225   34.836   27.694    0.348    0.882 
 6876  371.528    3.625    3.225   34.836   27.694    0.348    0.882 
 6878  371.702    3.625    3.225   34.836   27.694    0.348    0.882 
 6879  371.875    3.625    3.225   34.836   27.694    0.348    0.882 
 6880  372.048    3.625    3.225   34.836   27.694    0.348    0.879 
 6882  372.222    3.625    3.225   34.836   27.694    0.348    0.882 
 6883  372.395    3.625    3.225   34.836   27.694    0.348    0.879 
 6885  372.568    3.625    3.225   34.836   27.694    0.348    0.879 
 6890  372.742    3.625    3.226   34.847   27.703    0.348    0.879 
 6899  372.915    3.625    3.226   34.847   27.703    0.348    0.879 
 6906  373.089    3.625    3.226   34.847   27.703    0.348    0.879 
 6909  373.262    3.625    3.226   34.847   27.703    0.348    0.879 
 6911  373.435    3.625    3.226   34.847   27.703    0.348    0.879 
 6913  373.609    3.624    3.226   34.847   27.703    0.348    0.879 
 6915  373.782    3.624    3.226   34.847   27.703    0.348    0.879 
 6916  373.955    3.624    3.226   34.847   27.703    0.348    0.879 
 6919  374.302    3.624    3.226   34.847   27.703    0.348    0.879 
 6921  374.476    3.624    3.226   34.847   27.703    0.348    0.879 
 6922  374.649    3.624    3.226   34.847   27.703    0.348    0.879 
 6924  374.822    3.624    3.226   34.847   27.703    0.348    0.879 
 6925  374.996    3.624    3.226   34.847   27.703    0.348    0.879 
 6927  375.169    3.624    3.226   34.847   27.703    0.324    0.879 
 6928  375.342    3.624    3.226   34.847   27.703    0.324    0.879 
 6930  375.516    3.624    3.226   34.847   27.703    0.348    0.879 
 6931  375.689    3.624    3.226   34.846   27.703    0.348    0.879 
 6933  375.863    3.624    3.226   34.846   27.703    0.348    0.879 
 6935  376.036    3.624    3.226   34.846   27.703    0.348    0.879 
 6937  376.209    3.624    3.226   34.846   27.702    0.348    0.879 
 6938  376.383    3.624    3.226   34.846   27.702    0.348    0.879 
 6940  376.556    3.624    3.226   34.846   27.702    0.348    0.879 
 6942  376.729    3.624    3.226   34.846   27.702    0.324    0.879 
 6944  376.903    3.624    3.226   34.846   27.702    0.324    0.879 
 6947  377.076    3.624    3.226   34.846   27.702    0.348    0.879 
 6948  377.249    3.624    3.226   34.846   27.702    0.348    0.879 
 6952  377.423    3.624    3.226   34.846   27.702    0.348    0.879 
 6953  377.596    3.624    3.226   34.845   27.702    0.348    0.879 
 6955  377.770    3.624    3.226   34.845   27.702    0.371    0.879 
 6958  377.943    3.625    3.226   34.845   27.701    0.348    0.879 
 6959  378.116    3.625    3.226   34.845   27.701    0.371    0.879 
 6961  378.290    3.625    3.226   34.845   27.701    0.371    0.879 
 6963  378.463    3.625    3.226   34.845   27.701    0.417    0.879 
 6966  378.636    3.625    3.226   34.845   27.701    0.371    0.879 
 6967  378.810    3.625    3.226   34.845   27.701    0.371    0.879 
 6969  378.983    3.624    3.226   34.845   27.701    0.371    0.879 
 6972  379.157    3.624    3.226   34.845   27.701    0.371    0.879 
 6974  379.330    3.624    3.226   34.845   27.701    0.371    0.879 
 6976  379.503    3.624    3.226   34.845   27.701    0.371    0.879 
 6978  379.677    3.624    3.226   34.845   27.701    0.394    0.879 
 6980  379.850    3.624    3.226   34.845   27.701    0.394    0.879 
 6984  380.023    3.623    3.226   34.845   27.701    0.371    0.879 
 6986  380.197    3.623    3.226   34.845   27.701    0.371    0.879 
 6989  380.370    3.623    3.226   34.845   27.702    0.348    0.879 
 6991  380.543    3.623    3.226   34.845   27.702    0.371    0.879 
 6995  380.717    3.623    3.226   34.845   27.702    0.348    0.875 
 6997  380.890    3.623    3.226   34.845   27.702    0.348    0.879 
 6999  381.064    3.622    3.226   34.845   27.702    0.348    0.875 
 7002  381.237    3.622    3.226   34.845   27.702    0.348    0.875 
 7005  381.410    3.622    3.226   34.845   27.702    0.348    0.875 
 7006  381.584    3.622    3.226   34.845   27.702    0.348    0.875 
 7009  381.757    3.622    3.226   34.845   27.702    0.348    0.875 
 7011  381.930    3.622    3.226   34.845   27.702    0.348    0.875 
 7012  382.104    3.622    3.226   34.845   27.702    0.348    0.875 
 7014  382.277    3.622    3.226   34.845   27.702    0.324    0.875 
 7017  382.451    3.622    3.226   34.845   27.702    0.348    0.875 
 7020  382.624    3.622    3.226   34.845   27.701    0.348    0.875 
 7022  382.797    3.622    3.226   34.845   27.701    0.348    0.875 
 7025  382.971    3.623    3.226   34.844   27.700    0.324    0.875 
 7028  383.317    3.624    3.226   34.842   27.699    0.324    0.875 
 7031  383.491    3.624    3.226   34.842   27.699    0.348    0.879 
 7032  383.664    3.625    3.226   34.841   27.698    0.348    0.879 
 7034  383.837    3.625    3.226   34.841   27.698    0.348    0.879 
 7035  384.011    3.625    3.226   34.841   27.698    0.348    0.879 
 7037  384.184    3.625    3.226   34.841   27.698    0.348    0.879 
 7038  384.358    3.625    3.226   34.841   27.698    0.348    0.879 
 7040  384.531    3.625    3.226   34.841   27.698    0.348    0.875 
 7041  384.704    3.625    3.226   34.841   27.698    0.348    0.875 
 7043  384.878    3.625    3.226   34.840   27.698    0.348    0.875 
 7044  385.051    3.625    3.226   34.840   27.698    0.348    0.875 
 7046  385.224    3.625    3.226   34.840   27.698    0.348    0.875 
 7047  385.398    3.625    3.226   34.840   27.698    0.348    0.875 
 7048  385.571    3.625    3.226   34.840   27.698    0.348    0.875 
 7050  385.744    3.625    3.226   34.840   27.698    0.348    0.875 
 7052  385.918    3.625    3.226   34.840   27.698    0.348    0.875 
 7054  386.091    3.625    3.226   34.840   27.697    0.324    0.875 
 7057  386.265    3.625    3.226   34.840   27.697    0.348    0.875 
 7059  386.438    3.625    3.226   34.840   27.697    0.348    0.875 
 7063  386.611    3.625    3.226   34.840   27.697    0.348    0.875 
 7067  386.785    3.625    3.226   34.840   27.697    0.348    0.875 
 7072  386.958    3.625    3.226   34.840   27.697    0.348    0.875 
 7075  387.131    3.624    3.226   34.840   27.697    0.348    0.875 
 7077  387.305    3.624    3.226   34.840   27.697    0.348    0.875 
 7080  387.478    3.624    3.226   34.840   27.697    0.348    0.875 
 7083  387.651    3.624    3.226   34.840   27.697    0.348    0.875 
 7084  387.825    3.624    3.226   34.840   27.697    0.348    0.875 
 7086  387.998    3.624    3.226   34.840   27.697    0.348    0.875 
 7087  388.172    3.624    3.226   34.840   27.697    0.348    0.875 
 7088  388.345    3.624    3.226   34.840   27.697    0.371    0.875 
 7089  388.518    3.624    3.226   34.840   27.697    0.348    0.875 
 7091  388.692    3.624    3.226   34.840   27.697    0.348    0.875 
 7092  388.865    3.624    3.226   34.840   27.697    0.371    0.875 
 7093  389.038    3.624    3.226   34.840   27.697    0.348    0.875 
 7094  389.212    3.623    3.226   34.840   27.697    0.371    0.875 
 7096  389.558    3.623    3.226   34.840   27.697    0.371    0.875 
 7097  389.732    3.623    3.226   34.840   27.697    0.348    0.875 
 7098  389.905    3.623    3.226   34.840   27.697    0.371    0.875 
 7099  390.078    3.623    3.226   34.840   27.697    0.371    0.875 
 7100  390.252    3.623    3.226   34.840   27.697    0.371    0.875 
 7101  390.425    3.623    3.226   34.840   27.697    0.371    0.875 
 7102  390.599    3.623    3.226   34.840   27.697    0.371    0.875 
 7104  390.772    3.622    3.226   34.840   27.697    0.371    0.875 
 7105  390.945    3.622    3.226   34.840   27.697    0.371    0.875 
 7106  391.119    3.622    3.226   34.840   27.697    0.371    0.875 
 7107  391.292    3.622    3.226   34.840   27.697    0.348    0.875 
 7109  391.639    3.622    3.226   34.840   27.697    0.348    0.875 
 7111  391.812    3.622    3.226   34.840   27.697    0.348    0.875 
 7113  391.985    3.622    3.226   34.840   27.697    0.348    0.875 
 7116  392.159    3.622    3.226   34.840   27.697    0.348    0.875 
 7119  392.332    3.622    3.226   34.840   27.697    0.348    0.875 
 7127  392.505    3.622    3.226   34.839   27.697    0.348    0.875 
 7136  392.679    3.622    3.226   34.840   27.697    0.324    0.875 
 7137  392.852    3.622    3.226   34.840   27.697    0.324    0.875 
 7141  393.026    3.622    3.226   34.840   27.697    0.324    0.875 
 7143  393.372    3.622    3.226   34.840   27.697    0.348    0.875 
 7145  393.546    3.622    3.226   34.840   27.697    0.324    0.875 
 7146  393.719    3.622    3.226   34.840   27.697    0.348    0.875 
 7149  394.066    3.622    3.226   34.840   27.697    0.348    0.875 
 7150  394.239    3.622    3.226   34.840   27.697    0.348    0.875 
 7151  394.412    3.622    3.226   34.840   27.697    0.348    0.875 
 7152  394.586    3.622    3.226   34.840   27.697    0.348    0.875 
 7153  394.759    3.622    3.227   34.849   27.705    0.324    0.875 
 7154  394.932    3.622    3.227   34.849   27.705    0.348    0.875 
 7155  395.106    3.622    3.227   34.849   27.705    0.324    0.875 
 7156  395.279    3.622    3.227   34.849   27.705    0.324    0.875 
 7157  395.453    3.622    3.227   34.849   27.705    0.324    0.875 
 7158  395.799    3.622    3.227   34.849   27.705    0.348    0.875 
 7160  396.146    3.622    3.227   34.849   27.705    0.348    0.875 
 7161  396.319    3.622    3.227   34.849   27.705    0.348    0.875 
 7162  396.493    3.622    3.227   34.849   27.705    0.348    0.875 
 7164  396.666    3.622    3.227   34.849   27.705    0.348    0.875 
 7165  396.839    3.622    3.227   34.849   27.705    0.348    0.872 
 7166  397.013    3.622    3.227   34.849   27.705    0.348    0.872 
 7167  397.186    3.622    3.227   34.849   27.705    0.348    0.872 
 7168  397.359    3.622    3.227   34.849   27.705    0.348    0.872 
 7171  397.533    3.622    3.227   34.849   27.705    0.348    0.872 
 7172  397.706    3.622    3.227   34.849   27.705    0.348    0.872 
 7184  397.880    3.622    3.227   34.849   27.705    0.371    0.872 
 7192  398.053    3.622    3.227   34.849   27.705    0.371    0.872 
 7195  398.226    3.622    3.227   34.849   27.705    0.348    0.872 
 7197  398.400    3.622    3.227   34.849   27.705    0.324    0.872 
 7198  398.573    3.622    3.227   34.849   27.705    0.348    0.872 
 7200  398.746    3.622    3.227   34.849   27.705    0.348    0.872 
 7201  398.920    3.622    3.227   34.849   27.704    0.348    0.872 
 7202  399.093    3.621    3.227   34.849   27.704    0.348    0.872 
 7203  399.266    3.621    3.227   34.848   27.704    0.348    0.872 
 7205  399.440    3.621    3.227   34.848   27.704    0.348    0.872 
 7206  399.613    3.621    3.227   34.848   27.704    0.348    0.872 
 7207  399.786    3.621    3.227   34.848   27.704    0.324    0.872 
 7208  399.960    3.621    3.227   34.848   27.704    0.348    0.872 
 7209  400.133    3.621    3.227   34.848   27.704    0.324    0.872 
 7210  400.306    3.621    3.227   34.848   27.704    0.348    0.872 
 7211  400.480    3.621    3.227   34.848   27.704    0.348    0.872 
 7212  400.653    3.621    3.227   34.848   27.704    0.348    0.872 
 7214  400.827    3.621    3.227   34.848   27.704    0.348    0.872 
 7215  401.000    3.621    3.227   34.848   27.704    0.348    0.872 
 7216  401.173    3.621    3.227   34.848   27.704    0.348    0.872 
 7218  401.520    3.621    3.227   34.848   27.704    0.348    0.872 
 7220  401.693    3.621    3.227   34.848   27.704    0.348    0.872 
 7222  401.867    3.621    3.227   34.848   27.704    0.324    0.872 
 7224  402.040    3.621    3.227   34.847   27.704    0.324    0.872 
 7226  402.213    3.621    3.227   34.847   27.704    0.348    0.872 
 7229  402.387    3.621    3.227   34.847   27.703    0.371    0.869 
 7231  402.560    3.622    3.227   34.847   27.703    0.371    0.869 
 7235  402.733    3.622    3.227   34.846   27.703    0.371    0.869 
 7238  402.907    3.622    3.227   34.846   27.703    0.371    0.869 
 7240  403.080    3.622    3.227   34.846   27.703    0.371    0.869 
 7243  403.253    3.622    3.227   34.846   27.703    0.371    0.869 
 7244  403.427    3.622    3.227   34.846   27.703    0.371    0.869 
 7247  403.600    3.621    3.227   34.846   27.703    0.371    0.872 
 7248  403.773    3.621    3.227   34.846   27.703    0.348    0.869 
 7249  403.947    3.621    3.227   34.846   27.703    0.324    0.872 
 7250  404.120    3.621    3.227   34.846   27.703    0.324    0.872 
 7252  404.294    3.621    3.227   34.846   27.702    0.324    0.869 
 7253  404.640    3.621    3.227   34.846   27.702    0.324    0.869 
 7255  404.814    3.621    3.227   34.846   27.702    0.324    0.869 
 7256  404.987    3.621    3.227   34.846   27.702    0.324    0.869 
 7257  405.334    3.621    3.227   34.846   27.702    0.324    0.869 
 7258  405.507    3.621    3.227   34.846   27.702    0.324    0.869 
 7260  405.854    3.621    3.227   34.845   27.702    0.324    0.869 
 7261  406.027    3.622    3.227   34.844   27.701    0.324    0.869 
 7262  406.200    3.622    3.227   34.844   27.701    0.324    0.869 
 7263  406.374    3.622    3.227   34.844   27.701    0.324    0.869 
 7264  406.547    3.623    3.227   34.843   27.700    0.324    0.869 
 7265  406.720    3.623    3.227   34.843   27.700    0.324    0.869 
 7266  406.894    3.624    3.227   34.842   27.699    0.324    0.869 
 7267  407.067    3.624    3.227   34.842   27.699    0.324    0.869 
 7268  407.240    3.624    3.227   34.841   27.699    0.324    0.869 
 7269  407.414    3.624    3.227   34.841   27.698    0.324    0.869 
 7270  407.587    3.624    3.227   34.841   27.698    0.324    0.869 
 7271  407.760    3.624    3.227   34.841   27.698    0.324    0.869 
 7272  407.934    3.624    3.227   34.841   27.698    0.348    0.869 
 7274  408.107    3.624    3.227   34.841   27.698    0.301    0.869 
 7275  408.281    3.624    3.227   34.841   27.698    0.324    0.869 
 7278  408.454    3.624    3.227   34.841   27.698    0.324    0.869 
 7284  408.627    3.624    3.227   34.841   27.698    0.371    0.869 
 7295  408.801    3.624    3.227   34.841   27.698    0.348    0.869 
 7298  408.974    3.624    3.227   34.841   27.698    0.324    0.869 
 7300  409.147    3.624    3.227   34.841   27.698    0.324    0.869 
 7302  409.321    3.624    3.227   34.841   27.698    0.324    0.869 
 7303  409.494    3.624    3.227   34.841   27.698    0.324    0.869 
 7305  409.667    3.623    3.227   34.841   27.698    0.324    0.869 
 7306  409.841    3.622    3.227   34.842   27.699    0.324    0.869 
 7307  410.014    3.622    3.227   34.842   27.699    0.324    0.869 
 7308  410.187    3.621    3.227   34.842   27.699    0.324    0.869 
 7309  410.361    3.621    3.227   34.842   27.699    0.324    0.869 
 7310  410.534    3.621    3.227   34.842   27.699    0.324    0.869 
 7311  410.707    3.621    3.227   34.842   27.699    0.324    0.869 
 7312  410.881    3.621    3.227   34.842   27.699    0.348    0.869 
 7313  411.054    3.621    3.227   34.842   27.699    0.348    0.869 
 7314  411.227    3.621    3.227   34.842   27.699    0.371    0.869 
 7315  411.401    3.621    3.227   34.842   27.699    0.348    0.869 
 7316  411.574    3.621    3.227   34.842   27.699    0.324    0.869 
 7317  411.747    3.621    3.227   34.842   27.699    0.348    0.869 
 7319  411.921    3.621    3.227   34.842   27.699    0.348    0.869 
 7320  412.094    3.621    3.227   34.842   27.699    0.348    0.869 
 7321  412.441    3.621    3.227   34.842   27.699    0.324    0.869 
 7323  412.614    3.621    3.227   34.842   27.699    0.348    0.869 
 7325  412.787    3.621    3.227   34.842   27.699    0.348    0.869 
 7326  412.961    3.621    3.227   34.842   27.699    0.348    0.869 
 7327  413.134    3.621    3.227   34.841   27.699    0.348    0.869 
 7329  413.307    3.621    3.227   34.841   27.699    0.348    0.869 
 7330  413.481    3.621    3.227   34.841   27.699    0.348    0.869 
 7332  413.654    3.621    3.227   34.841   27.699    0.348    0.869 
 7334  413.827    3.621    3.227   34.841   27.699    0.324    0.869 
 7335  414.001    3.621    3.227   34.841   27.699    0.324    0.869 
 7336  414.174    3.621    3.227   34.841   27.699    0.324    0.869 
 7339  414.348    3.621    3.227   34.841   27.699    0.324    0.869 
 7341  414.521    3.621    3.227   34.841   27.699    0.324    0.869 
 7343  414.694    3.621    3.227   34.841   27.699    0.348    0.869 
 7346  414.868    3.621    3.227   34.841   27.699    0.348    0.869 
 7349  415.041    3.621    3.227   34.841   27.699    0.324    0.869 
 7351  415.214    3.621    3.227   34.841   27.699    0.324    0.869 
 7352  415.388    3.621    3.227   34.841   27.699    0.324    0.869 
 7355  415.561    3.621    3.228   34.850   27.706    0.324    0.869 
 7357  415.734    3.621    3.228   34.850   27.706    0.371    0.869 
 7359  415.908    3.621    3.228   34.850   27.706    0.371    0.869 
 7361  416.081    3.621    3.228   34.850   27.706    0.371    0.869 
 7363  416.254    3.622    3.228   34.850   27.706    0.348    0.869 
 7365  416.428    3.622    3.228   34.850   27.706    0.324    0.869 
 7366  416.601    3.622    3.228   34.850   27.706    0.324    0.869 
 7368  416.774    3.622    3.228   34.850   27.706    0.324    0.869 
 7370  416.948    3.622    3.228   34.850   27.706    0.324    0.869 
 7371  417.121    3.622    3.228   34.850   27.706    0.324    0.869 
 7372  417.294    3.622    3.228   34.850   27.706    0.348    0.869 
 7373  417.468    3.622    3.228   34.850   27.706    0.348    0.869 
 7375  417.641    3.622    3.228   34.850   27.706    0.324    0.869 
 7376  417.814    3.622    3.228   34.850   27.706    0.348    0.866 
 7377  417.988    3.622    3.228   34.850   27.705    0.324    0.866 
 7378  418.161    3.622    3.228   34.850   27.705    0.324    0.866 
 7380  418.334    3.622    3.228   34.850   27.705    0.301    0.866 
 7381  418.508    3.623    3.228   34.848   27.704    0.301    0.866 
 7382  418.681    3.623    3.228   34.848   27.704    0.301    0.866 
 7383  418.854    3.623    3.228   34.848   27.704    0.301    0.866 
 7384  419.028    3.623    3.228   34.848   27.704    0.324    0.866 
 7385  419.201    3.623    3.228   34.848   27.704    0.324    0.866 
 7387  419.548    3.623    3.228   34.848   27.704    0.324    0.866 
 7389  419.721    3.623    3.228   34.848   27.704    0.324    0.869 
 7390  419.894    3.623    3.228   34.848   27.704    0.324    0.869 
 7391  420.068    3.623    3.228   34.848   27.704    0.324    0.869 
 7393  420.241    3.624    3.228   34.846   27.703    0.324    0.869 
 7394  420.414    3.624    3.228   34.846   27.703    0.324    0.869 
 7395  420.588    3.624    3.228   34.846   27.703    0.324    0.866 
 7397  420.761    3.624    3.228   34.846   27.703    0.324    0.866 
 7398  420.934    3.625    3.228   34.846   27.703    0.324    0.866 
 7400  421.108    3.625    3.228   34.846   27.703    0.348    0.866 
 7402  421.281    3.626    3.228   34.846   27.703    0.348    0.866 
 7403  421.454    3.626    3.228   34.846   27.703    0.348    0.866 
 7405  421.628    3.628    3.228   34.846   27.703    0.348    0.866 
 7408  421.801    3.628    3.228   34.846   27.703    0.348    0.866 
 7409  421.974    3.628    3.228   34.846   27.703    0.348    0.866 
 7411  422.148    3.628    3.229   34.853   27.707    0.348    0.866 
 7413  422.321    3.628    3.229   34.853   27.707    0.348    0.866 
 7414  422.494    3.628    3.229   34.853   27.707    0.348    0.866 
 7416  422.668    3.628    3.229   34.853   27.707    0.371    0.866 
 7417  422.841    3.628    3.229   34.853   27.707    0.371    0.866 
 7419  423.014    3.627    3.229   34.853   27.708    0.371    0.866 
 7421  423.188    3.627    3.229   34.853   27.708    0.371    0.866 
 7423  423.361    3.627    3.229   34.853   27.708    0.371    0.866 
 7424  423.534    3.627    3.229   34.853   27.708    0.371    0.866 
 7426  423.708    3.627    3.229   34.853   27.708    0.371    0.866 
 7429  423.881    3.627    3.229   34.853   27.708    0.371    0.866 
 7431  424.054    3.627    3.229   34.853   27.708    0.371    0.866 
 7433  424.228    3.627    3.229   34.853   27.708    0.348    0.866 
 7434  424.401    3.627    3.229   34.853   27.708    0.348    0.866 
 7437  424.574    3.627    3.229   34.853   27.708    0.348    0.866 
 7438  424.748    3.627    3.229   34.853   27.708    0.348    0.866 
 7441  424.921    3.627    3.229   34.853   27.708    0.371    0.866 
 7442  425.094    3.627    3.229   34.853   27.708    0.371    0.866 
 7444  425.268    3.627    3.229   34.853   27.708    0.371    0.866 
 7446  425.441    3.627    3.229   34.853   27.708    0.371    0.866 
 7448  425.614    3.626    3.229   34.853   27.708    0.371    0.866 
 7450  425.788    3.626    3.229   34.853   27.708    0.371    0.866 
 7451  425.961    3.626    3.229   34.853   27.708    0.348    0.866 
 7452  426.134    3.626    3.229   34.853   27.708    0.371    0.866 
 7453  426.308    3.626    3.229   34.853   27.708    0.371    0.866 
 7454  426.481    3.626    3.229   34.853   27.708    0.371    0.866 
 7455  426.654    3.626    3.229   34.853   27.708    0.371    0.866 
 7457  427.001    3.626    3.229   34.853   27.708    0.371    0.866 
 7458  427.174    3.626    3.229   34.853   27.708    0.371    0.866 
 7459  427.348    3.626    3.229   34.853   27.708    0.371    0.866 
 7461  427.521    3.626    3.229   34.853   27.708    0.348    0.866 
 7462  427.694    3.626    3.229   34.853   27.708    0.371    0.866 
 7463  428.041    3.626    3.229   34.853   27.708    0.348    0.866 
 7465  428.388    3.625    3.229   34.853   27.708    0.348    0.866 
 7467  428.561    3.625    3.229   34.853   27.708    0.348    0.866 
 7468  428.734    3.624    3.229   34.853   27.708    0.348    0.866 
 7469  428.908    3.624    3.229   34.853   27.708    0.348    0.866 
 7470  429.081    3.624    3.229   34.853   27.708    0.348    0.866 
 7471  429.254    3.624    3.229   34.853   27.708    0.348    0.866 
 7473  429.428    3.624    3.229   34.853   27.708    0.324    0.866 
 7474  429.601    3.624    3.229   34.853   27.708    0.348    0.866 
 7476  429.774    3.624    3.229   34.853   27.708    0.324    0.866 
 7479  429.948    3.624    3.229   34.853   27.708    0.348    0.866 
 7482  430.121    3.624    3.229   34.853   27.708    0.348    0.866 
 7488  430.294    3.624    3.229   34.853   27.708    0.348    0.863 
 7492  430.468    3.624    3.229   34.853   27.708    0.371    0.866 
 7495  430.641    3.624    3.229   34.853   27.708    0.348    0.866 
 7499  430.814    3.623    3.229   34.853   27.708    0.348    0.866 
 7500  430.988    3.623    3.229   34.853   27.708    0.348    0.866 
 7502  431.161    3.623    3.229   34.853   27.708    0.348    0.866 
 7504  431.334    3.623    3.229   34.853   27.708    0.348    0.866 
 7505  431.508    3.623    3.229   34.853   27.708    0.348    0.866 
 7507  431.681    3.623    3.229   34.853   27.708    0.371    0.866 
 7508  431.854    3.623    3.229   34.853   27.708    0.371    0.866 
 7509  432.028    3.623    3.229   34.853   27.708    0.348    0.866 
 7511  432.201    3.623    3.229   34.853   27.708    0.348    0.866 
 7512  432.374    3.623    3.229   34.853   27.708    0.348    0.866 
 7513  432.548    3.623    3.229   34.853   27.708    0.348    0.866 
 7514  432.721    3.623    3.229   34.853   27.708    0.348    0.866 
 7515  432.894    3.623    3.229   34.853   27.708    0.348    0.866 
 7516  433.068    3.623    3.229   34.853   27.708    0.348    0.866 
 7517  433.241    3.623    3.229   34.852   27.708    0.348    0.866 
 7518  433.414    3.623    3.229   34.852   27.707    0.348    0.866 
 7519  433.588    3.623    3.229   34.852   27.707    0.348    0.863 
 7521  433.934    3.623    3.229   34.852   27.707    0.348    0.863 
 7523  434.108    3.623    3.229   34.852   27.707    0.324    0.863 
 7524  434.281    3.623    3.229   34.852   27.707    0.324    0.863 
 7525  434.454    3.624    3.229   34.851   27.706    0.324    0.863 
 7527  434.801    3.624    3.229   34.851   27.706    0.324    0.863 
 7529  434.974    3.624    3.229   34.851   27.706    0.324    0.863 
 7530  435.147    3.624    3.229   34.851   27.706    0.324    0.863 
 7533  435.321    3.624    3.229   34.851   27.706    0.324    0.863 
 7535  435.494    3.624    3.229   34.851   27.706    0.324    0.863 
 7536  435.667    3.624    3.229   34.851   27.706    0.324    0.863 
 7539  435.841    3.624    3.229   34.851   27.706    0.324    0.863 
 7542  436.014    3.624    3.229   34.851   27.706    0.324    0.863 
 7545  436.187    3.623    3.229   34.851   27.706    0.371    0.863 
 7548  436.361    3.623    3.229   34.851   27.706    0.324    0.863 
 7550  436.534    3.623    3.229   34.851   27.706    0.324    0.863 
 7553  436.707    3.623    3.229   34.851   27.706    0.324    0.863 
 7555  436.881    3.622    3.229   34.851   27.706    0.324    0.863 
 7556  437.054    3.622    3.229   34.851   27.706    0.324    0.863 
 7558  437.227    3.622    3.229   34.851   27.706    0.324    0.863 
 7560  437.401    3.622    3.229   34.851   27.706    0.348    0.863 
 7561  437.574    3.622    3.229   34.851   27.706    0.324    0.863 
 7563  437.747    3.622    3.229   34.851   27.706    0.324    0.863 
 7564  437.921    3.622    3.229   34.851   27.706    0.324    0.863 
 7566  438.094    3.622    3.229   34.851   27.706    0.348    0.863 
 7567  438.267    3.622    3.229   34.851   27.707    0.348    0.863 
 7569  438.614    3.622    3.229   34.851   27.707    0.348    0.863 
 7570  438.787    3.622    3.229   34.851   27.707    0.348    0.863 
 7572  438.961    3.622    3.229   34.851   27.707    0.348    0.863 
 7573  439.134    3.622    3.229   34.851   27.707    0.348    0.863 
 7575  439.307    3.621    3.229   34.851   27.707    0.348    0.863 
 7576  439.481    3.621    3.229   34.851   27.707    0.348    0.863 
 7577  439.654    3.621    3.229   34.851   27.707    0.348    0.863 
 7579  439.827    3.621    3.229   34.851   27.707    0.324    0.863 
 7580  440.001    3.620    3.229   34.851   27.707    0.324    0.863 
 7581  440.174    3.619    3.229   34.851   27.707    0.348    0.863 
 7583  440.347    3.619    3.229   34.851   27.707    0.348    0.863 
 7586  440.521    3.618    3.229   34.851   27.707    0.348    0.863 
 7587  440.694    3.618    3.229   34.851   27.707    0.348    0.863 
 7589  440.867    3.618    3.229   34.852   27.708    0.324    0.863 
 7592  441.040    3.617    3.229   34.853   27.708    0.324    0.863 
 7593  441.214    3.617    3.229   34.853   27.708    0.324    0.863 
 7597  441.387    3.617    3.228   34.854   27.709    0.324    0.863 
 7599  441.560    3.616    3.228   34.854   27.709    0.348    0.863 
 7601  441.734    3.616    3.228   34.854   27.709    0.348    0.863 
 7603  441.907    3.616    3.228   34.854   27.709    0.371    0.863 
 7605  442.254    3.616    3.228   34.854   27.709    0.324    0.863 
 7607  442.427    3.616    3.229   34.854   27.709    0.348    0.863 
 7609  442.600    3.616    3.229   34.854   27.710    0.371    0.863 
 7610  442.774    3.616    3.229   34.854   27.710    0.371    0.863 
 7611  442.947    3.616    3.229   34.854   27.710    0.371    0.859 
 7613  443.120    3.616    3.229   34.854   27.710    0.371    0.859 
 7614  443.294    3.616    3.229   34.854   27.710    0.371    0.859 
 7615  443.467    3.616    3.229   34.854   27.710    0.371    0.859 
 7616  443.640    3.616    3.229   34.854   27.710    0.371    0.859 
 7617  443.814    3.616    3.229   34.854   27.710    0.371    0.859 
 7618  443.987    3.616    3.229   34.854   27.709    0.371    0.859 
 7620  444.334    3.616    3.229   34.854   27.709    0.371    0.859 
 7622  444.507    3.616    3.229   34.854   27.709    0.371    0.859 
 7623  444.680    3.616    3.229   34.854   27.709    0.371    0.859 
 7625  444.853    3.616    3.229   34.854   27.709    0.371    0.859 
 7626  445.027    3.616    3.229   34.854   27.709    0.394    0.859 
 7627  445.200    3.616    3.229   34.854   27.709    0.394    0.859 
 7630  445.373    3.616    3.229   34.854   27.709    0.371    0.859 
 7631  445.547    3.616    3.229   34.854   27.709    0.371    0.859 
 7635  445.720    3.615    3.229   34.854   27.709    0.394    0.859 
 7643  445.893    3.615    3.229   34.853   27.709    0.348    0.859 
 7647  446.067    3.615    3.229   34.853   27.709    0.348    0.859 
 7649  446.240    3.615    3.229   34.853   27.709    0.324    0.859 
 7652  446.413    3.616    3.229   34.853   27.708    0.324    0.859 
 7654  446.587    3.616    3.229   34.853   27.708    0.324    0.859 
 7655  446.760    3.616    3.229   34.853   27.708    0.324    0.859 
 7656  446.933    3.616    3.229   34.853   27.708    0.324    0.859 
 7657  447.107    3.616    3.229   34.852   27.708    0.324    0.859 
 7659  447.280    3.616    3.229   34.852   27.708    0.324    0.859 
 7660  447.453    3.616    3.229   34.852   27.708    0.348    0.859 
 7661  447.800    3.616    3.229   34.852   27.708    0.348    0.859 
 7662  447.973    3.616    3.229   34.852   27.708    0.348    0.859 
 7663  448.147    3.616    3.229   34.852   27.708    0.348    0.859 
 7664  448.320    3.616    3.229   34.852   27.708    0.348    0.859 
 7665  448.493    3.616    3.229   34.852   27.708    0.348    0.859 
 7666  448.666    3.616    3.229   34.852   27.708    0.324    0.859 
 7667  449.013    3.616    3.229   34.851   27.707    0.324    0.859 
 7669  449.360    3.616    3.229   34.851   27.707    0.324    0.859 
 7671  449.533    3.616    3.229   34.851   27.707    0.348    0.859 
 7672  449.880    3.616    3.229   34.851   27.707    0.348    0.859 
 7673  450.053    3.616    3.229   34.851   27.707    0.348    0.859 
 7675  450.226    3.616    3.229   34.851   27.707    0.371    0.859 
 7676  450.400    3.616    3.229   34.851   27.707    0.371    0.859 
 7677  450.573    3.616    3.229   34.851   27.707    0.348    0.859 
 7679  450.746    3.616    3.229   34.851   27.707    0.348    0.859 
 7680  450.920    3.616    3.229   34.851   27.707    0.348    0.859 
 7683  451.093    3.615    3.229   34.851   27.707    0.324    0.859 
 7686  451.266    3.615    3.229   34.851   27.707    0.324    0.859 
 7696  451.439    3.615    3.229   34.851   27.707    0.324    0.859 
 7699  451.613    3.615    3.229   34.851   27.707    0.324    0.859 
 7701  451.786    3.615    3.229   34.851   27.707    0.301    0.859 
 7703  451.959    3.615    3.229   34.851   27.707    0.301    0.859 
 7704  452.133    3.615    3.229   34.851   27.707    0.301    0.859 
 7706  452.479    3.615    3.229   34.851   27.707    0.278    0.859 
 7707  452.653    3.615    3.229   34.850   27.707    0.301    0.859 
 7709  452.999    3.615    3.229   34.850   27.707    0.301    0.859 
 7711  453.173    3.615    3.229   34.850   27.707    0.301    0.859 
 7712  453.346    3.615    3.229   34.850   27.707    0.301    0.859 
 7713  453.519    3.616    3.229   34.849   27.705    0.301    0.859 
 7714  453.866    3.616    3.229   34.849   27.705    0.301    0.859 
 7716  454.212    3.616    3.229   34.849   27.705    0.301    0.859 
 7718  454.386    3.616    3.229   34.849   27.705    0.324    0.859 
 7719  454.559    3.616    3.229   34.848   27.705    0.324    0.859 
 7720  454.732    3.616    3.229   34.848   27.705    0.324    0.859 
 7721  454.906    3.616    3.229   34.848   27.705    0.324    0.859 
 7722  455.079    3.616    3.229   34.848   27.705    0.324    0.859 
 7723  455.252    3.616    3.229   34.848   27.705    0.324    0.859 
 7725  455.426    3.616    3.229   34.848   27.705    0.324    0.859 
 7727  455.599    3.616    3.229   34.848   27.705    0.348    0.859 
 7728  455.772    3.616    3.229   34.848   27.705    0.371    0.859 
 7731  455.946    3.616    3.229   34.848   27.705    0.348    0.856 
 7736  456.119    3.616    3.229   34.848   27.705    0.371    0.856 
 7740  456.292    3.616    3.229   34.848   27.705    0.348    0.856 
 7743  456.465    3.615    3.229   34.848   27.705    0.348    0.856 
 7746  456.639    3.615    3.229   34.848   27.705    0.348    0.856 
 7748  456.812    3.615    3.229   34.848   27.705    0.348    0.856 
 7749  456.985    3.615    3.229   34.848   27.705    0.348    0.856 
 7752  457.159    3.615    3.229   34.848   27.705    0.371    0.856 
 7753  457.332    3.615    3.229   34.848   27.705    0.371    0.856 
 7754  457.505    3.615    3.229   34.848   27.704    0.371    0.856 
 7756  457.679    3.615    3.229   34.848   27.704    0.371    0.856 
 7757  457.852    3.615    3.229   34.848   27.704    0.371    0.856 
 7758  458.025    3.615    3.229   34.848   27.704    0.371    0.856 
 7760  458.199    3.615    3.229   34.848   27.704    0.371    0.856 
 7761  458.372    3.615    3.229   34.847   27.704    0.371    0.856 
 7762  458.545    3.615    3.229   34.847   27.704    0.371    0.856 
 7764  458.718    3.615    3.229   34.847   27.704    0.371    0.856 
 7765  458.892    3.615    3.229   34.847   27.704    0.371    0.856 
 7766  459.065    3.615    3.229   34.847   27.704    0.371    0.856 
 7767  459.238    3.615    3.229   34.847   27.704    0.371    0.856 
 7769  459.412    3.615    3.229   34.847   27.704    0.371    0.856 
 7770  459.585    3.615    3.229   34.847   27.704    0.371    0.856 
 7772  459.758    3.615    3.229   34.847   27.704    0.324    0.856 
 7773  459.932    3.615    3.229   34.847   27.704    0.324    0.856 
 7774  460.105    3.615    3.229   34.847   27.704    0.324    0.856 
 7776  460.278    3.615    3.229   34.846   27.703    0.324    0.856 
 7778  460.452    3.615    3.229   34.846   27.703    0.348    0.856 
 7780  460.625    3.615    3.229   34.846   27.703    0.348    0.856 
 7782  460.798    3.615    3.229   34.846   27.703    0.348    0.856 
 7783  460.971    3.615    3.229   34.846   27.703    0.371    0.856 
 7785  461.145    3.615    3.229   34.846   27.703    0.348    0.856 
 7787  461.318    3.615    3.229   34.846   27.703    0.371    0.856 
 7789  461.491    3.615    3.229   34.846   27.703    0.371    0.856 
 7791  461.665    3.615    3.229   34.846   27.703    0.371    0.856 
 7792  461.838    3.615    3.229   34.846   27.703    0.371    0.856 
 7794  462.011    3.615    3.229   34.846   27.703    0.371    0.856 
 7795  462.185    3.615    3.229   34.846   27.703    0.371    0.856 
 7797  462.358    3.615    3.229   34.846   27.703    0.371    0.856 
 7798  462.531    3.615    3.229   34.846   27.703    0.371    0.856 
 7800  462.705    3.615    3.229   34.846   27.703    0.371    0.856 
 7801  462.878    3.615    3.229   34.846   27.703    0.371    0.856 
 7802  463.051    3.615    3.229   34.846   27.703    0.348    0.856 
 7804  463.224    3.615    3.229   34.846   27.703    0.348    0.856 
 7806  463.398    3.615    3.229   34.846   27.703    0.348    0.856 
 7808  463.571    3.615    3.230   34.856   27.711    0.324    0.856 
 7809  463.744    3.615    3.230   34.856   27.711    0.324    0.856 
 7810  463.918    3.615    3.230   34.856   27.711    0.324    0.856 
 7813  464.264    3.615    3.230   34.856   27.711    0.348    0.856 
 7816  464.438    3.615    3.230   34.856   27.711    0.324    0.856 
 7819  464.611    3.615    3.230   34.856   27.711    0.324    0.856 
 7821  464.784    3.615    3.230   34.856   27.711    0.324    0.856 
 7823  464.957    3.615    3.230   34.856   27.711    0.324    0.856 
 7826  465.131    3.615    3.230   34.856   27.711    0.324    0.856 
 7828  465.304    3.615    3.230   34.856   27.711    0.348    0.856 
 7831  465.477    3.615    3.230   34.856   27.711    0.348    0.856 
 7832  465.651    3.615    3.230   34.856   27.711    0.348    0.856 
 7834  465.824    3.615    3.230   34.855   27.711    0.348    0.856 
 7836  465.997    3.615    3.230   34.855   27.711    0.348    0.856 
 7837  466.171    3.615    3.230   34.855   27.711    0.348    0.856 
 7839  466.344    3.615    3.230   34.855   27.710    0.348    0.856 
 7841  466.517    3.615    3.230   34.855   27.710    0.324    0.856 
 7842  466.690    3.615    3.230   34.855   27.710    0.348    0.856 
 7843  466.864    3.615    3.230   34.855   27.710    0.348    0.856 
 7845  467.037    3.615    3.230   34.855   27.710    0.348    0.856 
 7846  467.210    3.615    3.230   34.855   27.710    0.348    0.856 
 7847  467.384    3.615    3.230   34.855   27.710    0.348    0.856 
 7848  467.557    3.615    3.230   34.855   27.710    0.348    0.856 
 7850  467.730    3.615    3.230   34.854   27.710    0.348    0.856 
 7851  467.904    3.615    3.230   34.854   27.710    0.324    0.856 
 7852  468.077    3.615    3.230   34.854   27.710    0.348    0.856 
 7853  468.250    3.615    3.230   34.854   27.710    0.348    0.856 
 7854  468.423    3.616    3.230   34.853   27.709    0.348    0.856 
 7855  468.597    3.618    3.230   34.851   27.707    0.324    0.856 
 7858  468.770    3.618    3.230   34.851   27.707    0.348    0.856 
 7859  469.117    3.618    3.230   34.851   27.706    0.348    0.856 
 7862  469.290    3.619    3.230   34.850   27.706    0.348    0.856 
 7864  469.463    3.619    3.230   34.849   27.705    0.348    0.856 
 7865  469.637    3.619    3.230   34.849   27.705    0.348    0.856 
 7867  469.810    3.619    3.230   34.849   27.705    0.348    0.856 
 7869  469.983    3.619    3.230   34.849   27.705    0.348    0.856 
 7873  470.156    3.619    3.230   34.849   27.705    0.348    0.856 
 7875  470.330    3.619    3.230   34.849   27.705    0.348    0.856 
 7878  470.503    3.619    3.230   34.849   27.705    0.371    0.856 
 7881  470.676    3.618    3.230   34.849   27.705    0.348    0.856 
 7884  470.850    3.619    3.230   34.849   27.705    0.348    0.856 
 7887  471.023    3.619    3.230   34.849   27.705    0.348    0.853 
 7889  471.196    3.619    3.230   34.849   27.705    0.348    0.853 
 7891  471.370    3.619    3.230   34.849   27.705    0.348    0.853 
 7894  471.716    3.621    3.230   34.850   27.705    0.371    0.853 
 7898  472.063    3.621    3.231   34.857   27.711    0.371    0.856 
 7900  472.236    3.621    3.231   34.857   27.711    0.348    0.856 
 7902  472.409    3.621    3.231   34.857   27.711    0.371    0.856 
 7904  472.583    3.621    3.231   34.857   27.711    0.348    0.856 
 7905  472.756    3.621    3.231   34.857   27.711    0.348    0.856 
 7907  472.929    3.621    3.231   34.857   27.711    0.348    0.856 
 7908  473.103    3.621    3.231   34.857   27.711    0.348    0.856 
 7910  473.276    3.621    3.231   34.857   27.711    0.348    0.856 
 7911  473.449    3.621    3.231   34.857   27.711    0.348    0.856 
 7912  473.622    3.621    3.231   34.857   27.711    0.348    0.856 
 7913  473.796    3.621    3.231   34.857   27.711    0.348    0.856 
 7915  473.969    3.621    3.231   34.857   27.711    0.324    0.856 
 7916  474.142    3.621    3.231   34.857   27.711    0.324    0.856 
 7917  474.316    3.622    3.231   34.855   27.710    0.348    0.856 
 7919  474.489    3.622    3.231   34.855   27.710    0.324    0.856 
 7920  474.662    3.622    3.231   34.855   27.710    0.324    0.853 
 7922  474.835    3.622    3.231   34.855   27.710    0.324    0.853 
 7923  475.009    3.622    3.231   34.855   27.710    0.324    0.853 
 7925  475.182    3.622    3.231   34.855   27.710    0.324    0.853 
 7926  475.355    3.622    3.231   34.855   27.709    0.371    0.853 
 7928  475.529    3.622    3.231   34.855   27.709    0.348    0.853 
 7929  475.702    3.623    3.231   34.854   27.708    0.324    0.853 
 7930  475.875    3.623    3.231   34.854   27.708    0.324    0.853 
 7932  476.049    3.623    3.231   34.853   27.708    0.348    0.853 
 7933  476.222    3.623    3.231   34.853   27.708    0.348    0.853 
 7935  476.395    3.623    3.231   34.853   27.708    0.348    0.853 
 7937  476.568    3.623    3.231   34.853   27.708    0.348    0.853 
 7938  476.742    3.623    3.231   34.853   27.708    0.324    0.853 
 7940  476.915    3.624    3.231   34.853   27.708    0.348    0.853 
 7942  477.088    3.624    3.231   34.853   27.708    0.348    0.853 
 7945  477.262    3.624    3.231   34.853   27.708    0.371    0.853 
 7947  477.435    3.624    3.231   34.853   27.708    0.348    0.853 
 7950  477.608    3.624    3.231   34.853   27.708    0.371    0.853 
 7953  477.781    3.623    3.231   34.853   27.708    0.394    0.853 
 7955  477.955    3.623    3.231   34.853   27.708    0.394    0.853 
 7957  478.128    3.623    3.231   34.853   27.708    0.371    0.853 
 7960  478.301    3.622    3.231   34.853   27.708    0.371    0.853 
 7963  478.475    3.622    3.231   34.853   27.708    0.324    0.853 
 7965  478.648    3.622    3.231   34.853   27.708    0.324    0.853 
 7969  478.821    3.621    3.231   34.854   27.709    0.324    0.853 
 7971  478.995    3.621    3.231   34.854   27.709    0.324    0.853 
 7974  479.168    3.621    3.231   34.854   27.709    0.324    0.853 
 7978  479.341    3.621    3.231   34.854   27.709    0.324    0.853 
 7981  479.514    3.621    3.231   34.854   27.709    0.324    0.853 
 7986  479.688    3.620    3.231   34.855   27.710    0.348    0.853 
 7992  479.861    3.620    3.231   34.855   27.709    0.348    0.853 
 8001  480.034    3.620    3.231   34.854   27.709    0.348    0.850 
 8005  480.208    3.620    3.231   34.854   27.709    0.348    0.850 
