NAFC_Y2K_HEADER
39673016  51 45.48 -049  6.31 2006-06-14 08:25 3019 S0281 016 V   stn 16       1
39673016 002736  8.00 A 08 #PTCSMFL------------            D 000 0000 0506 000 4
39673016 4 31 03 02 1017.0 006.5 005.0 04 03 31 04 04                          8
-- CHANNEL STATS -->
# span     scan =   2524.000,  7419.000
# span     pres =      0.030,   506.373
# span     temp =      3.520,     7.283
# span     cond =      3.199,     3.498
# span      sal =     34.197,    34.868
# span     sigt =     26.747,    27.716
# span     flor =      0.231,     8.177
# span      par =      0.882,  2157.700
-- END --
-- HISTORY --> Thu Jun 22 14:23:10 2006
>SELECT_PROBE S
>READ # (DP) T C L F scan pres temp cond par flor
>STABILIZE_RESTRICT USING= pres 10.0 5 
>RESTRICT USING= pres 0.0 2000.0
>RESTRICT USING= cond 2.0 5.0
>RESTRICT USING= temp -2.0 20.0
>RESTRICT USING= scan 500.0 30000.0
>MEDIANFILTER pres 21 1
>MEDIANFILTER temp 21 1
>MEDIANFILTER cond 21 1
>MEDIANFILTER flor 21 1
>MEDIANFILTER par 21 1
>SELECT_DN USING= pres
>SALINITY PRESSURE=pres CONDUCTIVITY=cond TEMPERATURE=temp RESULT=sal
>RESTRICT USING= sal 29.0 36.0
>MEDIANFILTER sal 21 1
>SIGMAT SALINITY=sal TEMPERATURE=temp RESULT=sigt
>MEDIANFILTER sigt 21 1
>HISTORY_ON
>WRITEFILE .p???? scan pres temp cond sal sigt flor par
-- END --
 scan     pres     temp     cond      sal     sigt     flor      par 
-- DATA --
 2524    0.030    7.283    3.481   34.197   26.747    8.177 2157.700 
 2527    0.204    7.283    3.493   34.328   26.850    0.975  256.430 
 2528    0.378    7.283    3.498   34.382   26.893    3.089  208.470 
 2530    0.551    7.283    3.498   34.382   26.893    3.322  147.260 
 2532    0.725    7.283    3.498   34.382   26.893    1.486  133.270 
 2533    0.899    7.283    3.498   34.382   26.893    2.741  145.100 
 2535    1.072    7.282    3.498   34.383   26.894    2.787  190.060 
 2537    1.246    7.280    3.498   34.385   26.895    2.787  190.060 
 2538    1.420    7.280    3.498   34.385   26.895    2.834  179.140 
 2540    1.767    7.280    3.498   34.385   26.895    2.834  168.850 
 2541    1.941    7.280    3.498   34.385   26.895    2.834  168.850 
 2543    2.114    7.280    3.498   34.385   26.895    2.857  168.850 
 2545    2.288    7.279    3.498   34.385   26.895    2.857  164.540 
 2546    2.462    7.279    3.498   34.385   26.895    2.857  163.320 
 2550    2.635    7.279    3.498   34.385   26.895    2.857  160.920 
 2554    2.809    7.279    3.498   34.385   26.895    2.810  160.920 
 2561    2.982    7.280    3.498   34.385   26.895    2.717  155.080 
 2567    3.156    7.280    3.498   34.385   26.895    2.834  150.560 
 2570    3.330    7.279    3.498   34.385   26.896    2.950  141.910 
 2573    3.503    7.279    3.498   34.385   26.896    3.019  141.390 
 2574    3.677    7.279    3.498   34.385   26.896    3.112  139.310 
 2576    3.851    7.279    3.498   34.385   26.896    3.182  138.800 
 2578    4.024    7.279    3.498   34.385   26.896    3.345  135.750 
 2579    4.198    7.278    3.498   34.385   26.896    3.345  132.280 
 2581    4.372    7.278    3.498   34.385   26.896    3.391  129.860 
 2582    4.545    7.278    3.498   34.385   26.896    3.414  124.680 
 2583    4.719    7.278    3.498   34.385   26.896    3.484  118.830 
 2584    4.893    7.278    3.498   34.385   26.896    3.507  113.260 
 2585    5.066    7.278    3.498   34.385   26.896    3.600  108.740 
 2587    5.240    7.278    3.498   34.385   26.896    3.600   95.540 
 2588    5.414    7.278    3.498   34.385   26.896    3.624   91.056 
 2589    5.587    7.278    3.498   34.385   26.896    3.624   86.462 
 2591    5.761    7.278    3.498   34.385   26.896    3.647   80.894 
 2592    5.935    7.278    3.498   34.385   26.896    3.647   77.958 
 2594    6.108    7.278    3.498   34.385   26.896    3.647   75.685 
 2595    6.282    7.278    3.498   34.385   26.896    3.647   73.479 
 2597    6.456    7.278    3.498   34.385   26.896    3.716   70.550 
 2598    6.629    7.278    3.498   34.385   26.896    3.716   69.002 
 2600    6.803    7.278    3.498   34.385   26.896    3.716   67.239 
 2601    6.977    7.277    3.498   34.385   26.896    3.716   66.252 
 2603    7.150    7.277    3.498   34.385   26.896    3.716   63.142 
 2605    7.324    7.276    3.498   34.385   26.896    3.716   59.515 
 2607    7.497    7.276    3.498   34.385   26.896    3.716   55.068 
 2608    7.671    7.276    3.498   34.386   26.896    3.716   52.678 
 2610    7.845    7.276    3.498   34.386   26.896    3.716   48.204 
 2612    8.018    7.276    3.498   34.386   26.896    3.693   45.267 
 2613    8.192    7.276    3.498   34.386   26.896    3.670   44.438 
 2614    8.366    7.276    3.498   34.386   26.896    3.670   43.948 
 2617    8.539    7.275    3.498   34.386   26.896    3.693   43.463 
 2618    8.713    7.275    3.498   34.386   26.896    3.670   42.825 
 2620    8.887    7.275    3.498   34.386   26.896    3.693   41.576 
 2621    9.060    7.275    3.498   34.386   26.896    3.716   40.815 
 2623    9.234    7.275    3.498   34.386   26.896    3.740   38.756 
 2625    9.408    7.275    3.498   34.386   26.896    3.809   37.349 
 2627    9.581    7.274    3.498   34.385   26.896    3.809   35.860 
 2629    9.755    7.274    3.497   34.385   26.896    3.809   35.203 
 2632    9.929    7.273    3.497   34.385   26.896    3.833   34.815 
 2633   10.102    7.272    3.497   34.383   26.896    3.879   34.686 
 2636   10.276    7.269    3.497   34.383   26.897    3.833   33.551 
 2639   10.450    7.267    3.497   34.382   26.897    3.879   32.333 
 2641   10.623    7.267    3.497   34.382   26.897    3.809   30.929 
 2644   10.797    7.266    3.497   34.382   26.897    3.809   29.153 
 2646   10.971    7.264    3.497   34.382   26.897    3.740   28.303 
 2647   11.144    7.261    3.497   34.382   26.897    3.740   27.682 
 2648   11.318    7.260    3.496   34.382   26.897    3.740   27.175 
 2650   11.491    7.258    3.496   34.382   26.897    3.740   25.899 
 2652   11.839    7.255    3.496   34.382   26.897    3.740   25.051 
 2654   12.012    7.249    3.495   34.382   26.898    3.716   23.525 
 2655   12.186    7.249    3.495   34.383   26.898    3.740   22.839 
 2656   12.360    7.246    3.495   34.383   26.899    3.740   22.174 
 2657   12.533    7.239    3.495   34.383   26.900    3.740   21.767 
 2658   12.707    7.236    3.495   34.385   26.902    3.809   21.290 
 2659   12.881    7.233    3.494   34.385   26.902    3.809   20.517 
 2660   13.054    7.233    3.494   34.387   26.904    3.809   19.772 
 2661   13.228    7.228    3.494   34.387   26.904    3.833   19.054 
 2662   13.402    7.224    3.494   34.387   26.905    3.833   18.363 
 2663   13.575    7.219    3.493   34.387   26.906    3.833   17.827 
 2665   13.749    7.210    3.492   34.387   26.907    3.879   16.928 
 2666   13.923    7.196    3.492   34.389   26.910    3.879   16.679 
 2667   14.096    7.188    3.491   34.390   26.912    3.902   16.253 
 2669   14.270    7.159    3.489   34.391   26.917    3.902   15.663 
 2670   14.443    7.153    3.488   34.391   26.918    3.925   15.490 
 2673   14.617    7.128    3.485   34.391   26.922    3.972   14.983 
 2674   14.791    7.124    3.485   34.393   26.923    3.972   14.763 
 2678   14.964    7.113    3.484   34.393   26.925    4.065   14.227 
 2682   15.138    7.111    3.484   34.394   26.926    4.135   13.610 
 2685   15.312    7.099    3.482   34.394   26.928    4.158   13.116 
 2688   15.485    7.093    3.482   34.395   26.930    4.204   12.593 
 2689   15.659    7.081    3.482   34.397   26.932    4.251   12.408 
 2691   15.833    7.067    3.480   34.397   26.934    4.251   11.913 
 2693   16.006    7.050    3.479   34.397   26.937    4.251   11.481 
 2694   16.180    7.037    3.478   34.397   26.938    4.297   11.229 
 2695   16.354    7.019    3.476   34.397   26.942    4.297   11.064 
 2697   16.527    7.004    3.475   34.399   26.945    4.297   10.506 
 2698   16.701    6.999    3.474   34.399   26.946    4.297   10.237 
 2699   16.875    6.996    3.474   34.400   26.947    4.297   10.087 
 2701   17.048    6.982    3.473   34.400   26.949    4.297    9.473 
 2702   17.222    6.969    3.472   34.400   26.951    4.297    9.231 
 2703   17.395    6.950    3.470   34.401   26.954    4.297    8.962 
 2704   17.569    6.933    3.469   34.400   26.956    4.297    8.733 
 2705   17.743    6.925    3.468   34.401   26.957    4.297    8.509 
 2706   17.916    6.920    3.467   34.401   26.958    4.320    8.261 
 2707   18.090    6.914    3.467   34.401   26.959    4.320    8.050 
 2708   18.264    6.903    3.466   34.401   26.961    4.344    7.874 
 2709   18.437    6.876    3.465   34.401   26.964    4.344    7.644 
 2710   18.611    6.859    3.462   34.401   26.967    4.390    7.504 
 2712   18.785    6.805    3.457   34.402   26.974    4.390    7.125 
 2714   18.958    6.767    3.454   34.402   26.979    4.413    6.766 
 2715   19.132    6.764    3.454   34.401   26.979    4.413    6.642 
 2717   19.306    6.761    3.453   34.401   26.980    4.413    6.448 
 2718   19.479    6.760    3.453   34.401   26.980    4.413    6.354 
 2720   19.653    6.758    3.453   34.400   26.980    4.437    6.214 
 2723   19.826    6.757    3.453   34.400   26.980    4.460    5.901 
 2724   20.000    6.757    3.452   34.400   26.980    4.483    5.836 
 2727   20.174    6.748    3.451   34.400   26.981    4.460    5.562 
 2730   20.347    6.728    3.450   34.400   26.984    4.460    5.380 
 2733   20.521    6.677    3.446   34.400   26.990    4.460    5.108 
 2734   20.695    6.676    3.445   34.400   26.991    4.460    5.071 
 2737   20.868    6.653    3.443   34.400   26.994    4.460    4.815 
 2738   21.042    6.652    3.443   34.400   26.994    4.437    4.744 
 2739   21.216    6.652    3.443   34.401   26.994    4.437    4.657 
 2741   21.389    6.650    3.443   34.402   26.996    4.390    4.488 
 2743   21.737    6.649    3.443   34.402   26.996    4.390    4.325 
 2745   21.910    6.647    3.443   34.402   26.996    4.390    4.122 
 2746   22.084    6.647    3.443   34.402   26.996    4.390    4.062 
 2747   22.257    6.639    3.442   34.403   26.998    4.390    3.987 
 2748   22.431    6.585    3.439   34.403   27.005    4.367    3.929 
 2749   22.605    6.569    3.437   34.403   27.007    4.367    3.885 
 2750   22.778    6.561    3.436   34.405   27.010    4.390    3.828 
 2751   22.952    6.511    3.433   34.407   27.018    4.390    3.758 
 2753   23.126    6.486    3.430   34.411   27.024    4.390    3.622 
 2754   23.299    6.480    3.428   34.411   27.026    4.390    3.555 
 2755   23.473    6.480    3.428   34.411   27.026    4.390    3.465 
 2756   23.647    6.476    3.428   34.411   27.026    4.413    3.414 
 2757   23.820    6.465    3.428   34.411   27.028    4.437    3.351 
 2759   23.994    6.444    3.425   34.414   27.032    4.460    3.314 
 2760   24.168    6.438    3.425   34.414   27.033    4.483    3.290 
 2762   24.341    6.390    3.421   34.414   27.039    4.506    3.241 
 2763   24.515    6.377    3.420   34.415   27.042    4.506    3.194 
 2766   24.688    6.329    3.416   34.416   27.049    4.576    3.101 
 2768   24.862    6.271    3.411   34.416   27.057    4.622    3.055 
 2770   25.036    6.240    3.408   34.415   27.060    4.622    2.955 
 2774   25.209    6.205    3.404   34.415   27.064    4.646    2.859 
 2778   25.383    6.194    3.403   34.416   27.067    4.692    2.817 
 2783   25.557    6.185    3.402   34.417   27.068    4.530    2.724 
 2785   25.730    6.167    3.401   34.417   27.071    4.530    2.635 
 2787   25.904    6.153    3.399   34.418   27.073    4.506    2.577 
 2788   26.078    6.143    3.399   34.421   27.077    4.506    2.539 
 2790   26.251    6.084    3.394   34.421   27.084    4.483    2.411 
 2791   26.425    6.065    3.393   34.421   27.087    4.460    2.324 
 2792   26.598    6.032    3.390   34.421   27.091    4.437    2.290 
 2794   26.772    6.014    3.387   34.421   27.094    4.390    2.248 
 2795   27.119    6.012    3.387   34.422   27.094    4.367    2.207 
 2797   27.467    5.982    3.385   34.423   27.099    4.320    2.119 
 2798   27.640    5.935    3.382   34.423   27.105    4.320    2.004 
 2799   27.814    5.910    3.379   34.427   27.111    4.297    1.982 
 2800   27.988    5.895    3.377   34.427   27.114    4.297    1.953 
 2801   28.161    5.851    3.375   34.427   27.119    4.320    1.953 
 2802   28.335    5.817    3.371   34.428   27.124    4.320    1.939 
 2803   28.682    5.796    3.369   34.429   27.127    4.320    1.932 
 2804   28.856    5.772    3.367   34.429   27.130    4.320    1.924 
 2805   29.029    5.755    3.365   34.431   27.134    4.320    1.917 
 2806   29.203    5.749    3.364   34.431   27.135    4.320    1.889 
 2807   29.377    5.747    3.364   34.431   27.135    4.320    1.862 
 2808   29.550    5.743    3.364   34.432   27.136    4.297    1.821 
 2809   29.898    5.743    3.364   34.432   27.136    4.297    1.774 
 2812   30.071    5.717    3.362   34.432   27.140    4.227    1.742 
 2813   30.245    5.689    3.360   34.435   27.145    4.297    1.735 
 2814   30.418    5.657    3.358   34.435   27.149    4.390    1.729 
 2815   30.592    5.635    3.355   34.437   27.153    4.413    1.729 
 2819   30.766    5.594    3.351   34.444   27.164    4.530    1.716 
 2821   30.939    5.546    3.349   34.445   27.171    4.622    1.710 
 2825   31.113    5.490    3.343   34.446   27.179    4.715    1.710 
 2830   31.287    5.443    3.340   34.447   27.184    4.739    1.685 
 2833   31.460    5.381    3.333   34.448   27.193    4.739    1.685 
 2836   31.634    5.298    3.328   34.451   27.205    4.622    1.678 
 2837   31.808    5.278    3.325   34.451   27.208    4.530    1.654 
 2839   31.981    5.239    3.322   34.451   27.212    4.158    1.635 
 2840   32.155    5.226    3.320   34.453   27.216    4.042    1.629 
 2842   32.328    5.192    3.317   34.454   27.220    3.763    1.588 
 2843   32.502    5.186    3.317   34.455   27.222    3.693    1.564 
 2845   32.676    5.178    3.315   34.455   27.223    3.647    1.525 
 2846   32.849    5.175    3.315   34.455   27.223    3.624    1.513 
 2847   33.023    5.168    3.315   34.455   27.224    3.600    1.497 
 2848   33.197    5.161    3.314   34.455   27.225    3.600    1.480 
 2850   33.370    5.150    3.313   34.456   27.227    3.577    1.453 
 2851   33.544    5.144    3.313   34.455   27.227    3.577    1.432 
 2852   33.718    5.138    3.312   34.455   27.227    3.531    1.426 
 2854   33.891    5.123    3.311   34.454   27.228    3.507    1.416 
 2855   34.065    5.111    3.310   34.454   27.229    3.461    1.416 
 2856   34.238    5.098    3.309   34.451   27.229    3.461    1.400 
 2858   34.412    5.082    3.307   34.451   27.231    3.484    1.385 
 2860   34.586    5.076    3.307   34.451   27.231    3.484    1.349 
 2862   34.759    5.059    3.306   34.451   27.233    3.461    1.344 
 2863   34.933    5.047    3.305   34.451   27.234    3.461    1.344 
 2865   35.107    5.030    3.303   34.451   27.237    3.461    1.339 
 2868   35.280    5.026    3.302   34.451   27.237    3.414    1.339 
 2872   35.454    5.026    3.302   34.451   27.237    3.298    1.339 
 2874   35.627    5.026    3.302   34.451   27.237    3.228    1.339 
 2877   35.801    5.026    3.302   34.451   27.237    3.159    1.339 
 2878   35.975    5.026    3.302   34.451   27.237    3.159    1.334 
 2880   36.148    5.026    3.302   34.451   27.237    3.112    1.334 
 2882   36.322    5.026    3.302   34.451   27.237    2.996    1.334 
 2884   36.496    5.026    3.302   34.451   27.237    2.973    1.334 
 2885   36.669    5.026    3.302   34.451   27.237    2.973    1.330 
 2886   36.843    5.023    3.302   34.451   27.237    2.927    1.330 
 2887   37.017    5.023    3.302   34.451   27.237    2.857    1.330 
 2888   37.190    5.023    3.302   34.452   27.239    2.857    1.325 
 2889   37.364    5.019    3.301   34.453   27.239    2.857    1.325 
 2890   37.711    5.015    3.301   34.453   27.240    2.810    1.325 
 2892   38.058    4.984    3.299   34.453   27.243    2.787    1.305 
 2893   38.232    4.978    3.298   34.453   27.244    2.764    1.277 
 2894   38.406    4.972    3.298   34.456   27.247    2.764    1.263 
 2895   38.753    4.970    3.298   34.458   27.249    2.741    1.258 
 2896   38.926    4.966    3.297   34.458   27.250    2.741    1.253 
 2897   39.100    4.963    3.297   34.459   27.251    2.741    1.253 
 2898   39.274    4.960    3.297   34.460   27.252    2.671    1.253 
 2899   39.447    4.952    3.297   34.466   27.258    2.671    1.253 
 2900   39.795    4.930    3.295   34.467   27.261    2.578    1.249 
 2901   39.968    4.890    3.293   34.474   27.271    2.578    1.249 
 2902   40.142    4.878    3.291   34.474   27.273    2.578    1.244 
 2903   40.315    4.868    3.291   34.474   27.274    2.578    1.239 
 2904   40.489    4.866    3.290   34.474   27.274    2.578    1.226 
 2905   40.663    4.853    3.289   34.474   27.276    2.578    1.226 
 2906   40.836    4.842    3.289   34.476   27.277    2.578    1.221 
 2907   41.010    4.838    3.288   34.476   27.278    2.578    1.217 
 2908   41.184    4.832    3.288   34.476   27.279    2.578    1.217 
 2909   41.357    4.819    3.287   34.477   27.279    2.671    1.217 
 2911   41.531    4.819    3.286   34.480   27.279    2.671    1.212 
 2912   41.704    4.818    3.286   34.480   27.280    2.671    1.212 
 2915   41.878    4.815    3.286   34.480   27.281    2.717    1.203 
 2927   42.052    4.906    3.292   34.484   27.284    3.019    1.199 
 2934   42.225    4.906    3.292   34.486   27.284    2.857    1.194 
 2936   42.399    4.906    3.292   34.487   27.284    2.857    1.194 
 2938   42.573    4.779    3.287   34.488   27.295    2.717    1.190 
 2939   42.746    4.775    3.286   34.500   27.305    2.671    1.190 
 2940   42.920    4.768    3.280   34.502   27.307    2.346    1.186 
 2942   43.267    4.694    3.278   34.504   27.317    1.835    1.181 
 2944   43.441    4.683    3.276   34.505   27.319    1.718    1.177 
 2945   43.614    4.678    3.276   34.505   27.320    1.602    1.173 
 2946   43.962    4.668    3.275   34.505   27.321    1.556    1.164 
 2948   44.135    4.658    3.274   34.506   27.323    1.463    1.160 
 2949   44.309    4.655    3.274   34.507   27.324    1.393    1.160 
 2950   44.482    4.653    3.274   34.507   27.324    1.393    1.160 
 2951   44.656    4.651    3.274   34.509   27.326    1.393    1.160 
 2952   44.830    4.642    3.273   34.509   27.327    1.370    1.160 
 2953   45.003    4.636    3.273   34.509   27.328    1.370    1.155 
 2954   45.177    4.631    3.272   34.510   27.328    1.370    1.155 
 2955   45.351    4.626    3.272   34.510   27.329    1.324    1.155 
 2956   45.524    4.621    3.271   34.510   27.330    1.324    1.155 
 2957   45.698    4.615    3.271   34.511   27.331    1.324    1.151 
 2958   45.871    4.611    3.271   34.511   27.332    1.324    1.151 
 2960   46.045    4.605    3.270   34.512   27.333    1.324    1.151 
 2961   46.219    4.604    3.270   34.513   27.334    1.370    1.151 
 2963   46.392    4.597    3.270   34.515   27.337    1.370    1.151 
 2964   46.566    4.593    3.269   34.518   27.339    1.370    1.151 
 2965   46.740    4.582    3.269   34.522   27.343    1.370    1.151 
 2969   46.913    4.547    3.266   34.522   27.347    1.370    1.147 
 2970   47.087    4.542    3.266   34.523   27.349    1.370    1.143 
 2972   47.260    4.537    3.265   34.524   27.350    1.393    1.138 
 2976   47.434    4.523    3.264   34.528   27.355    1.393    1.134 
 2979   47.608    4.514    3.264   34.528   27.356    1.393    1.130 
 2983   47.781    4.505    3.263   34.530   27.358    1.347    1.130 
 2986   47.955    4.495    3.262   34.530   27.360    1.324    1.130 
 2988   48.129    4.490    3.262   34.531   27.361    1.324    1.130 
 2990   48.302    4.487    3.262   34.531   27.361    1.300    1.130 
 2991   48.476    4.485    3.261   34.531   27.362    1.277    1.126 
 2993   48.649    4.483    3.261   34.532   27.363    1.254    1.130 
 2994   48.823    4.481    3.261   34.534   27.364    1.254    1.130 
 2996   48.997    4.479    3.261   34.534   27.365    1.254    1.130 
 2997   49.170    4.479    3.261   34.534   27.365    1.230    1.130 
 2999   49.344    4.471    3.260   34.535   27.366    1.207    1.126 
 3000   49.518    4.467    3.260   34.535   27.367    1.207    1.126 
 3001   49.691    4.462    3.260   34.536   27.368    1.207    1.126 
 3002   49.865    4.459    3.259   34.538   27.370    1.207    1.126 
 3003   50.038    4.454    3.259   34.540   27.372    1.207    1.126 
 3004   50.212    4.446    3.259   34.541   27.374    1.207    1.126 
 3005   50.386    4.438    3.258   34.544   27.377    1.207    1.126 
 3006   50.559    4.431    3.258   34.545   27.378    1.207    1.126 
 3007   50.733    4.424    3.257   34.548   27.382    1.207    1.122 
 3008   50.906    4.419    3.257   34.549   27.383    1.207    1.117 
 3009   51.080    4.399    3.256   34.552   27.388    1.207    1.117 
 3010   51.254    4.385    3.255   34.554   27.391    1.207    1.117 
 3012   51.601    4.380    3.254   34.554   27.391    1.207    1.122 
 3013   51.775    4.375    3.254   34.558   27.395    1.207    1.122 
 3014   51.948    4.369    3.253   34.559   27.396    1.207    1.122 
 3015   52.122    4.362    3.253   34.559   27.397    1.207    1.117 
 3016   52.295    4.359    3.252   34.561   27.399    1.207    1.117 
 3018   52.469    4.345    3.252   34.561   27.401    1.207    1.117 
 3019   52.816    4.341    3.251   34.562   27.401    1.207    1.122 
 3021   52.990    4.326    3.250   34.563   27.404    1.207    1.122 
 3023   53.164    4.320    3.250   34.565   27.406    1.230    1.117 
 3024   53.337    4.316    3.249   34.566   27.407    1.230    1.117 
 3025   53.511    4.313    3.249   34.567   27.409    1.230    1.117 
 3027   53.684    4.312    3.249   34.567   27.409    1.230    1.117 
 3029   53.858    4.299    3.248   34.567   27.411    1.277    1.117 
 3030   54.032    4.295    3.248   34.567   27.411    1.277    1.117 
 3033   54.205    4.287    3.247   34.568   27.412    1.254    1.113 
 3035   54.379    4.279    3.247   34.568   27.413    1.230    1.113 
 3038   54.552    4.276    3.246   34.569   27.415    1.230    1.109 
 3040   54.726    4.273    3.246   34.570   27.415    1.230    1.105 
 3043   54.900    4.270    3.246   34.570   27.416    1.230    1.105 
 3047   55.073    4.267    3.246   34.570   27.416    1.230    1.105 
 3051   55.247    4.262    3.245   34.571   27.417    1.184    1.105 
 3054   55.421    4.260    3.245   34.571   27.417    1.161    1.105 
 3056   55.594    4.255    3.245   34.571   27.418    1.138    1.105 
 3058   55.768    4.253    3.244   34.572   27.419    1.114    1.105 
 3059   55.941    4.252    3.244   34.573   27.420    1.114    1.105 
 3061   56.115    4.250    3.244   34.574   27.421    1.114    1.105 
 3062   56.289    4.247    3.244   34.574   27.421    1.091    1.105 
 3064   56.636    4.242    3.244   34.575   27.422    1.091    1.101 
 3065   56.809    4.240    3.243   34.577   27.424    1.068    1.101 
 3067   56.983    4.238    3.243   34.577   27.425    1.091    1.097 
 3068   57.330    4.234    3.243   34.578   27.426    1.091    1.097 
 3069   57.504    4.219    3.243   34.580   27.429    1.091    1.097 
 3071   57.678    4.205    3.241   34.580   27.431    1.091    1.097 
 3072   57.851    4.205    3.241   34.580   27.431    1.091    1.097 
 3074   58.198    4.204    3.241   34.580   27.431    1.091    1.093 
 3076   58.372    4.204    3.241   34.581   27.432    1.091    1.093 
 3077   58.546    4.204    3.241   34.581   27.432    1.161    1.093 
 3078   58.719    4.204    3.241   34.581   27.432    1.161    1.093 
 3079   58.893    4.204    3.241   34.581   27.432    1.161    1.093 
 3080   59.066    4.204    3.241   34.582   27.432    1.161    1.093 
 3082   59.240    4.204    3.241   34.582   27.432    1.184    1.093 
 3084   59.414    4.205    3.241   34.582   27.432    1.184    1.093 
 3086   59.587    4.205    3.241   34.582   27.432    1.184    1.093 
 3087   59.761    4.205    3.241   34.582   27.432    1.207    1.093 
 3090   59.935    4.205    3.241   34.582   27.432    1.230    1.093 
 3095   60.108    4.204    3.241   34.582   27.432    1.230    1.093 
 3097   60.282    4.203    3.241   34.582   27.432    1.230    1.093 
 3100   60.455    4.201    3.240   34.582   27.432    1.207    1.093 
 3103   60.629    4.166    3.238   34.582   27.436    1.207    1.089 
 3104   60.803    4.164    3.238   34.582   27.436    1.207    1.089 
 3106   60.976    4.162    3.238   34.582   27.436    1.207    1.089 
 3108   61.150    4.162    3.238   34.582   27.437    1.207    1.093 
 3109   61.323    4.162    3.238   34.582   27.437    1.207    1.097 
 3110   61.497    4.162    3.238   34.584   27.438    1.184    1.097 
 3111   61.671    4.161    3.238   34.585   27.440    1.207    1.097 
 3113   62.018    4.161    3.237   34.586   27.440    1.207    1.097 
 3114   62.191    4.159    3.237   34.587   27.440    1.207    1.097 
 3115   62.365    4.158    3.237   34.587   27.440    1.207    1.089 
 3116   62.539    4.158    3.237   34.587   27.441    1.207    1.097 
 3117   62.712    4.157    3.237   34.589   27.441    1.207    1.097 
 3118   62.886    4.155    3.237   34.589   27.441    1.184    1.089 
 3119   63.060    4.153    3.237   34.587   27.441    1.184    1.089 
 3120   63.233    4.152    3.237   34.587   27.441    1.184    1.089 
 3121   63.580    4.152    3.237   34.586   27.442    1.184    1.085 
 3123   63.754    4.149    3.237   34.584   27.442    1.184    1.085 
 3124   63.928    4.148    3.237   34.584   27.442    1.184    1.081 
 3125   64.101    4.147    3.237   34.586   27.442    1.207    1.081 
 3126   64.275    4.147    3.237   34.586   27.442    1.207    1.081 
 3127   64.448    4.146    3.237   34.587   27.443    1.184    1.081 
 3128   64.622    4.146    3.237   34.587   27.443    1.184    1.081 
 3130   64.796    4.145    3.236   34.590   27.445    1.207    1.081 
 3131   64.969    4.144    3.236   34.590   27.445    1.230    1.081 
 3133   65.143    4.143    3.236   34.590   27.445    1.207    1.085 
 3135   65.316    4.143    3.236   34.591   27.446    1.207    1.085 
 3136   65.490    4.142    3.236   34.592   27.446    1.230    1.085 
 3138   65.664    4.140    3.236   34.592   27.447    1.254    1.081 
 3140   65.837    4.136    3.236   34.592   27.448    1.254    1.081 
 3143   66.011    4.136    3.236   34.592   27.448    1.230    1.085 
 3145   66.184    4.133    3.236   34.593   27.448    1.254    1.085 
 3148   66.358    4.132    3.236   34.593   27.449    1.254    1.085 
 3150   66.532    4.131    3.236   34.594   27.450    1.230    1.085 
 3151   66.705    4.131    3.236   34.595   27.451    1.207    1.081 
 3153   66.879    4.130    3.236   34.595   27.451    1.207    1.081 
 3154   67.052    4.129    3.236   34.596   27.451    1.207    1.077 
 3156   67.226    4.122    3.235   34.596   27.452    1.184    1.077 
 3158   67.400    4.099    3.234   34.597   27.455    1.161    1.077 
 3159   67.573    4.096    3.233   34.601   27.459    1.161    1.081 
 3161   67.747    4.091    3.233   34.603   27.461    1.161    1.081 
 3162   67.921    4.083    3.233   34.603   27.462    1.184    1.077 
 3164   68.094    4.078    3.232   34.604   27.463    1.207    1.077 
 3165   68.268    4.075    3.232   34.605   27.464    1.184    1.077 
 3168   68.441    4.066    3.231   34.605   27.465    1.184    1.077 
 3170   68.615    4.066    3.231   34.605   27.465    1.114    1.077 
 3172   68.789    4.064    3.231   34.606   27.466    1.114    1.073 
 3174   68.962    4.064    3.231   34.607   27.467    1.091    1.077 
 3178   69.136    4.055    3.231   34.608   27.469    1.068    1.073 
 3181   69.309    4.051    3.230   34.610   27.470    1.068    1.073 
 3182   69.483    4.050    3.230   34.610   27.470    1.068    1.069 
 3184   69.657    4.042    3.230   34.615   27.475    1.068    1.069 
 3186   69.830    4.041    3.230   34.616   27.477    1.068    1.073 
 3188   70.004    4.037    3.229   34.617   27.478    1.068    1.073 
 3190   70.177    4.027    3.229   34.620   27.481    1.045    1.073 
 3192   70.351    4.004    3.227   34.620   27.484    1.045    1.073 
 3193   70.525    4.002    3.227   34.622   27.486    1.045    1.073 
 3194   70.698    3.997    3.227   34.623   27.487    1.021    1.073 
 3196   70.872    3.989    3.226   34.624   27.488    0.998    1.073 
 3197   71.045    3.989    3.226   34.624   27.488    0.975    1.073 
 3199   71.219    3.987    3.226   34.626   27.490    0.975    1.073 
 3200   71.393    3.986    3.226   34.626   27.490    0.975    1.073 
 3202   71.740    3.981    3.226   34.626   27.491    0.928    1.073 
 3204   72.087    3.978    3.225   34.627   27.491    0.928    1.073 
 3206   72.261    3.970    3.225   34.627   27.492    0.928    1.073 
 3207   72.434    3.965    3.225   34.627   27.493    0.928    1.073 
 3208   72.608    3.964    3.224   34.628   27.494    0.952    1.073 
 3209   72.781    3.964    3.224   34.629   27.495    0.952    1.073 
 3210   72.955    3.963    3.224   34.631   27.497    0.952    1.073 
 3212   73.129    3.963    3.224   34.631   27.497    0.952    1.077 
 3213   73.302    3.961    3.224   34.632   27.497    0.952    1.073 
 3214   73.476    3.958    3.224   34.632   27.498    0.952    1.073 
 3215   73.649    3.958    3.224   34.632   27.498    0.952    1.073 
 3216   73.823    3.958    3.224   34.632   27.498    0.952    1.073 
 3217   73.997    3.956    3.224   34.632   27.498    0.952    1.073 
 3218   74.170    3.955    3.224   34.633   27.499    0.952    1.073 
 3221   74.517    3.946    3.223   34.633   27.500    0.952    1.073 
 3222   74.691    3.944    3.223   34.634   27.501    0.952    1.073 
 3225   74.865    3.936    3.223   34.634   27.502    0.952    1.073 
 3226   75.038    3.935    3.222   34.634   27.502    0.952    1.073 
 3228   75.212    3.932    3.222   34.639   27.506    0.952    1.073 
 3230   75.385    3.916    3.221   34.639   27.508    0.952    1.073 
 3231   75.559    3.913    3.221   34.639   27.508    0.928    1.069 
 3234   75.733    3.908    3.221   34.639   27.509    0.928    1.069 
 3236   75.906    3.902    3.220   34.639   27.509    0.928    1.069 
 3238   76.080    3.897    3.220   34.639   27.510    0.905    1.069 
 3241   76.253    3.895    3.220   34.641   27.511    0.882    1.069 
 3244   76.427    3.894    3.220   34.642   27.512    0.882    1.069 
 3247   76.601    3.893    3.220   34.642   27.513    0.859    1.069 
 3250   76.774    3.893    3.220   34.642   27.513    0.812    1.065 
 3252   76.948    3.893    3.219   34.642   27.513    0.789    1.069 
 3254   77.121    3.893    3.219   34.642   27.513    0.789    1.069 
 3255   77.295    3.893    3.219   34.643   27.513    0.789    1.073 
 3257   77.469    3.893    3.219   34.645   27.515    0.789    1.073 
 3259   77.642    3.893    3.219   34.645   27.515    0.743    1.073 
 3260   77.816    3.891    3.219   34.646   27.516    0.743    1.073 
 3261   77.989    3.889    3.219   34.646   27.516    0.743    1.073 
 3263   78.163    3.886    3.219   34.646   27.516    0.719    1.073 
 3265   78.337    3.882    3.219   34.646   27.516    0.743    1.073 
 3266   78.510    3.878    3.219   34.645   27.516    0.743    1.073 
 3267   78.684    3.878    3.218   34.645   27.517    0.743    1.069 
 3268   78.857    3.878    3.218   34.646   27.517    0.743    1.069 
 3269   79.205    3.875    3.218   34.647   27.518    0.743    1.069 
 3271   79.378    3.872    3.218   34.648   27.519    0.743    1.069 
 3272   79.552    3.872    3.218   34.648   27.519    0.743    1.069 
 3273   79.725    3.870    3.218   34.650   27.521    0.766    1.069 
 3274   79.899    3.870    3.218   34.650   27.521    0.766    1.069 
 3275   80.073    3.868    3.218   34.650   27.521    0.766    1.069 
 3277   80.246    3.864    3.218   34.652   27.523    0.766    1.069 
 3278   80.420    3.863    3.217   34.652   27.524    0.789    1.069 
 3279   80.593    3.861    3.217   34.652   27.524    0.789    1.065 
 3280   80.767    3.856    3.217   34.654   27.526    0.836    1.065 
 3282   80.941    3.851    3.217   34.656   27.528    0.836    1.069 
 3283   81.114    3.843    3.216   34.657   27.529    0.859    1.069 
 3285   81.288    3.829    3.215   34.657   27.531    0.859    1.069 
 3286   81.461    3.827    3.215   34.659   27.533    0.859    1.069 
 3287   81.635    3.822    3.215   34.664   27.537    0.859    1.069 
 3290   81.809    3.750    3.211   34.678   27.556    0.859    1.069 
 3291   81.982    3.743    3.210   34.678   27.556    0.859    1.069 
 3293   82.156    3.741    3.210   34.679   27.557    0.836    1.069 
 3295   82.329    3.741    3.210   34.679   27.558    0.812    1.069 
 3299   82.503    3.741    3.209   34.679   27.558    0.789    1.069 
 3302   82.677    3.741    3.209   34.680   27.558    0.789    1.069 
 3305   82.850    3.740    3.209   34.683   27.561    0.766    1.065 
 3308   83.024    3.739    3.209   34.684   27.561    0.766    1.065 
 3310   83.197    3.739    3.209   34.685   27.562    0.743    1.065 
 3312   83.371    3.739    3.209   34.688   27.565    0.743    1.065 
 3315   83.545    3.735    3.209   34.688   27.565    0.719    1.065 
 3317   83.892    3.728    3.209   34.688   27.566    0.673    1.065 
 3319   84.065    3.724    3.208   34.689   27.567    0.650    1.065 
 3321   84.413    3.722    3.208   34.689   27.567    0.650    1.065 
 3323   84.586    3.719    3.208   34.689   27.568    0.627    1.065 
 3324   84.760    3.718    3.208   34.690   27.568    0.627    1.065 
 3325   84.933    3.717    3.208   34.690   27.569    0.627    1.065 
 3326   85.107    3.717    3.208   34.690   27.569    0.627    1.065 
 3327   85.280    3.717    3.208   34.691   27.569    0.627    1.065 
 3328   85.454    3.716    3.208   34.691   27.569    0.627    1.065 
 3329   85.628    3.714    3.208   34.693   27.571    0.627    1.065 
 3330   85.801    3.714    3.208   34.693   27.571    0.627    1.065 
 3331   85.975    3.714    3.208   34.693   27.571    0.627    1.065 
 3332   86.148    3.707    3.208   34.697   27.575    0.627    1.065 
 3333   86.322    3.698    3.207   34.697   27.577    0.627    1.065 
 3334   86.496    3.695    3.207   34.698   27.577    0.627    1.065 
 3336   86.669    3.687    3.206   34.698   27.578    0.603    1.065 
 3337   86.843    3.681    3.206   34.698   27.579    0.580    1.065 
 3338   87.016    3.681    3.206   34.698   27.579    0.580    1.065 
 3339   87.190    3.680    3.206   34.698   27.579    0.580    1.065 
 3341   87.364    3.675    3.206   34.698   27.579    0.580    1.065 
 3342   87.537    3.674    3.205   34.699   27.580    0.580    1.065 
 3344   87.711    3.674    3.205   34.699   27.580    0.580    1.061 
 3346   87.884    3.674    3.205   34.700   27.581    0.580    1.061 
 3349   88.058    3.674    3.205   34.700   27.581    0.557    1.061 
 3351   88.232    3.674    3.205   34.700   27.581    0.557    1.057 
 3353   88.405    3.674    3.205   34.700   27.581    0.557    1.057 
 3356   88.579    3.673    3.205   34.700   27.581    0.557    1.061 
 3358   88.752    3.673    3.205   34.700   27.581    0.557    1.057 
 3360   89.100    3.672    3.205   34.700   27.581    0.534    1.057 
 3363   89.273    3.671    3.205   34.700   27.581    0.534    1.057 
 3364   89.447    3.671    3.205   34.700   27.581    0.534    1.057 
 3365   89.620    3.671    3.205   34.700   27.581    0.534    1.057 
 3367   89.794    3.671    3.205   34.700   27.581    0.534    1.057 
 3368   89.967    3.671    3.205   34.700   27.582    0.534    1.057 
 3369   90.141    3.671    3.205   34.700   27.582    0.534    1.057 
 3370   90.315    3.671    3.205   34.701   27.582    0.534    1.057 
 3371   90.488    3.670    3.205   34.701   27.582    0.534    1.057 
 3372   90.662    3.670    3.205   34.701   27.582    0.534    1.057 
 3374   90.835    3.668    3.205   34.703   27.584    0.534    1.053 
 3375   91.009    3.667    3.205   34.704   27.585    0.534    1.053 
 3376   91.183    3.667    3.205   34.704   27.585    0.534    1.053 
 3377   91.356    3.667    3.205   34.704   27.585    0.534    1.053 
 3378   91.530    3.666    3.205   34.704   27.585    0.534    1.053 
 3380   91.703    3.666    3.205   34.704   27.585    0.534    1.053 
 3381   91.877    3.666    3.205   34.704   27.585    0.557    1.053 
 3382   92.051    3.666    3.205   34.704   27.585    0.557    1.053 
 3384   92.224    3.666    3.205   34.704   27.585    0.557    1.053 
 3387   92.398    3.666    3.205   34.704   27.585    0.534    1.053 
 3388   92.571    3.666    3.205   34.705   27.585    0.534    1.057 
 3392   92.745    3.666    3.205   34.705   27.585    0.510    1.057 
 3396   92.918    3.665    3.205   34.705   27.586    0.534    1.057 
 3401   93.092    3.664    3.205   34.706   27.587    0.534    1.061 
 3405   93.266    3.663    3.205   34.707   27.587    0.534    1.057 
 3406   93.439    3.663    3.205   34.707   27.587    0.510    1.057 
 3408   93.613    3.663    3.205   34.707   27.588    0.534    1.057 
 3410   93.786    3.662    3.205   34.708   27.588    0.534    1.057 
 3412   93.960    3.661    3.205   34.708   27.588    0.534    1.057 
 3413   94.134    3.661    3.205   34.708   27.588    0.534    1.057 
 3415   94.307    3.661    3.205   34.708   27.588    0.534    1.057 
 3416   94.654    3.661    3.205   34.708   27.588    0.534    1.057 
 3418   94.828    3.660    3.205   34.708   27.588    0.534    1.057 
 3419   95.175    3.660    3.205   34.708   27.588    0.534    1.053 
 3421   95.522    3.660    3.205   34.708   27.588    0.534    1.053 
 3423   95.696    3.659    3.205   34.708   27.588    0.534    1.053 
 3424   95.869    3.658    3.205   34.708   27.588    0.534    1.053 
 3425   96.043    3.657    3.205   34.708   27.588    0.534    1.053 
 3426   96.217    3.657    3.204   34.707   27.589    0.534    1.053 
 3427   96.390    3.657    3.204   34.707   27.589    0.534    1.053 
 3428   96.564    3.655    3.204   34.706   27.589    0.534    1.057 
 3429   96.737    3.654    3.204   34.706   27.589    0.534    1.057 
 3430   96.911    3.653    3.204   34.706   27.589    0.534    1.057 
 3431   97.085    3.651    3.204   34.706   27.589    0.534    1.057 
 3433   97.258    3.650    3.204   34.706   27.589    0.487    1.057 
 3435   97.432    3.650    3.204   34.706   27.589    0.487    1.057 
 3436   97.605    3.650    3.204   34.706   27.589    0.441    1.057 
 3439   97.779    3.650    3.204   34.706   27.589    0.487    1.057 
 3442   97.952    3.649    3.204   34.706   27.589    0.441    1.057 
 3447   98.126    3.650    3.204   34.706   27.589    0.464    1.057 
 3450   98.300    3.650    3.204   34.707   27.589    0.464    1.057 
 3453   98.473    3.649    3.204   34.707   27.589    0.464    1.057 
 3455   98.647    3.649    3.204   34.707   27.589    0.487    1.057 
 3456   98.820    3.649    3.204   34.707   27.589    0.487    1.057 
 3458   98.994    3.649    3.204   34.707   27.589    0.510    1.057 
 3459   99.168    3.649    3.204   34.707   27.589    0.487    1.057 
 3461   99.341    3.649    3.204   34.707   27.589    0.510    1.057 
 3462   99.515    3.648    3.204   34.707   27.589    0.510    1.057 
 3463   99.688    3.648    3.204   34.707   27.589    0.510    1.057 
 3464   99.862    3.648    3.204   34.707   27.589    0.510    1.057 
 3465  100.035    3.648    3.204   34.707   27.589    0.510    1.057 
 3466  100.209    3.648    3.204   34.707   27.589    0.510    1.057 
 3467  100.383    3.648    3.204   34.707   27.589    0.510    1.057 
 3468  100.556    3.648    3.204   34.707   27.589    0.510    1.057 
 3469  100.730    3.648    3.204   34.707   27.589    0.510    1.057 
 3471  101.077    3.648    3.204   34.707   27.589    0.510    1.057 
 3473  101.424    3.647    3.204   34.707   27.590    0.510    1.053 
 3475  101.598    3.641    3.204   34.714   27.595    0.510    1.053 
 3476  101.771    3.640    3.204   34.715   27.596    0.510    1.053 
 3477  101.945    3.639    3.204   34.715   27.596    0.487    1.053 
 3479  102.118    3.639    3.204   34.715   27.597    0.487    1.053 
 3480  102.292    3.639    3.204   34.715   27.597    0.487    1.053 
 3482  102.466    3.639    3.204   34.715   27.597    0.487    1.053 
 3483  102.639    3.639    3.204   34.715   27.597    0.510    1.053 
 3486  102.813    3.639    3.204   34.715   27.597    0.487    1.053 
 3487  102.986    3.639    3.204   34.715   27.597    0.487    1.053 
 3489  103.160    3.638    3.204   34.715   27.597    0.487    1.053 
 3491  103.333    3.638    3.204   34.715   27.597    0.510    1.053 
 3493  103.507    3.638    3.204   34.715   27.597    0.487    1.053 
 3495  103.681    3.638    3.204   34.716   27.597    0.487    1.053 
 3497  103.854    3.638    3.204   34.716   27.597    0.510    1.053 
 3500  104.028    3.637    3.204   34.715   27.597    0.534    1.053 
 3502  104.201    3.636    3.204   34.716   27.597    0.534    1.053 
 3503  104.375    3.636    3.204   34.716   27.597    0.534    1.053 
 3506  104.549    3.634    3.203   34.716   27.597    0.534    1.053 
 3508  104.722    3.630    3.203   34.716   27.598    0.510    1.053 
 3511  104.896    3.628    3.203   34.716   27.598    0.487    1.053 
 3512  105.069    3.627    3.203   34.716   27.598    0.487    1.053 
 3515  105.243    3.627    3.203   34.716   27.598    0.510    1.053 
 3517  105.416    3.626    3.203   34.716   27.599    0.510    1.053 
 3519  105.590    3.626    3.203   34.716   27.599    0.487    1.053 
 3521  105.764    3.626    3.203   34.717   27.599    0.487    1.053 
 3523  105.937    3.625    3.203   34.717   27.599    0.464    1.053 
 3525  106.111    3.625    3.203   34.717   27.599    0.487    1.053 
 3526  106.284    3.624    3.203   34.716   27.599    0.487    1.053 
 3528  106.458    3.623    3.203   34.716   27.599    0.487    1.053 
 3529  106.631    3.623    3.203   34.716   27.599    0.487    1.053 
 3530  106.805    3.623    3.203   34.717   27.600    0.487    1.053 
 3531  106.979    3.623    3.203   34.717   27.600    0.487    1.053 
 3533  107.326    3.622    3.203   34.717   27.600    0.487    1.053 
 3535  107.499    3.619    3.203   34.718   27.600    0.487    1.049 
 3536  107.673    3.618    3.203   34.718   27.601    0.487    1.053 
 3537  107.846    3.617    3.203   34.718   27.601    0.487    1.053 
 3538  108.020    3.617    3.203   34.718   27.601    0.487    1.053 
 3540  108.194    3.613    3.202   34.718   27.602    0.487    1.053 
 3541  108.367    3.613    3.202   34.719   27.602    0.487    1.053 
 3542  108.541    3.613    3.202   34.720   27.603    0.487    1.053 
 3543  108.714    3.612    3.202   34.722   27.604    0.464    1.049 
 3544  108.888    3.612    3.202   34.722   27.604    0.487    1.049 
 3546  109.235    3.611    3.202   34.722   27.605    0.464    1.049 
 3548  109.409    3.609    3.202   34.723   27.605    0.487    1.049 
 3549  109.582    3.607    3.202   34.723   27.606    0.487    1.049 
 3551  109.756    3.606    3.202   34.724   27.606    0.464    1.049 
 3552  109.929    3.605    3.202   34.724   27.607    0.487    1.049 
 3555  110.103    3.601    3.202   34.724   27.607    0.510    1.049 
 3556  110.277    3.601    3.202   34.728   27.610    0.510    1.049 
 3558  110.450    3.599    3.202   34.728   27.610    0.510    1.049 
 3559  110.624    3.595    3.201   34.728   27.611    0.510    1.049 
 3562  110.797    3.589    3.201   34.729   27.613    0.510    1.049 
 3565  110.971    3.588    3.201   34.730   27.613    0.487    1.049 
 3567  111.144    3.587    3.201   34.730   27.613    0.487    1.049 
 3570  111.318    3.582    3.201   34.730   27.614    0.464    1.049 
 3571  111.492    3.576    3.200   34.733   27.617    0.464    1.049 
 3574  111.665    3.573    3.200   34.734   27.618    0.441    1.049 
 3576  111.839    3.572    3.200   34.735   27.619    0.441    1.049 
 3577  112.012    3.571    3.200   34.735   27.619    0.441    1.049 
 3579  112.186    3.570    3.200   34.735   27.619    0.417    1.049 
 3580  112.359    3.567    3.200   34.735   27.620    0.417    1.049 
 3582  112.533    3.564    3.200   34.736   27.620    0.417    1.046 
 3585  112.880    3.564    3.200   34.737   27.621    0.417    1.046 
 3586  113.054    3.563    3.200   34.737   27.622    0.417    1.046 
 3588  113.227    3.561    3.200   34.738   27.622    0.417    1.046 
 3589  113.401    3.559    3.199   34.738   27.623    0.417    1.046 
 3590  113.574    3.559    3.199   34.739   27.623    0.417    1.046 
 3591  113.748    3.557    3.199   34.739   27.624    0.417    1.046 
 3592  113.922    3.556    3.199   34.739   27.624    0.417    1.046 
 3594  114.095    3.556    3.199   34.739   27.624    0.417    1.046 
 3595  114.269    3.555    3.199   34.739   27.624    0.417    1.046 
 3596  114.442    3.554    3.199   34.739   27.624    0.417    1.046 
 3597  114.616    3.554    3.199   34.739   27.624    0.417    1.046 
 3598  114.789    3.554    3.199   34.739   27.624    0.417    1.046 
 3599  114.963    3.554    3.199   34.739   27.624    0.441    1.046 
 3600  115.137    3.554    3.199   34.739   27.624    0.441    1.046 
 3602  115.310    3.553    3.199   34.740   27.625    0.441    1.046 
 3603  115.484    3.553    3.199   34.740   27.625    0.417    1.046 
 3604  115.657    3.553    3.199   34.740   27.625    0.417    1.046 
 3606  115.831    3.553    3.199   34.740   27.625    0.417    1.046 
 3607  116.004    3.553    3.199   34.740   27.625    0.417    1.046 
 3609  116.178    3.553    3.199   34.740   27.625    0.417    1.046 
 3611  116.352    3.552    3.199   34.740   27.625    0.417    1.049 
 3612  116.525    3.552    3.199   34.740   27.625    0.417    1.049 
 3614  116.699    3.552    3.199   34.740   27.625    0.417    1.049 
 3617  116.872    3.552    3.199   34.740   27.625    0.417    1.049 
 3619  117.046    3.552    3.199   34.740   27.625    0.441    1.053 
 3622  117.219    3.552    3.199   34.740   27.625    0.441    1.049 
 3625  117.393    3.552    3.199   34.740   27.625    0.441    1.049 
 3628  117.567    3.552    3.199   34.740   27.625    0.441    1.049 
 3630  117.740    3.552    3.199   34.740   27.625    0.464    1.046 
 3633  117.914    3.552    3.199   34.740   27.625    0.441    1.046 
 3634  118.087    3.552    3.199   34.740   27.625    0.441    1.046 
 3636  118.261    3.551    3.199   34.740   27.625    0.441    1.046 
 3638  118.434    3.551    3.199   34.740   27.625    0.441    1.042 
 3639  118.608    3.551    3.199   34.740   27.625    0.441    1.042 
 3641  118.781    3.550    3.199   34.741   27.626    0.441    1.042 
 3642  118.955    3.550    3.199   34.741   27.626    0.417    1.042 
 3644  119.129    3.550    3.199   34.741   27.626    0.417    1.038 
 3645  119.476    3.550    3.199   34.741   27.626    0.417    1.038 
 3647  119.649    3.549    3.199   34.742   27.626    0.417    1.038 
 3648  119.823    3.549    3.199   34.742   27.627    0.417    1.034 
 3649  119.996    3.549    3.199   34.742   27.627    0.417    1.034 
 3651  120.170    3.549    3.199   34.742   27.627    0.417    1.034 
 3652  120.344    3.548    3.199   34.743   27.627    0.417    1.034 
 3654  120.691    3.547    3.199   34.743   27.628    0.441    1.034 
 3656  120.864    3.546    3.199   34.744   27.629    0.441    1.034 
 3657  121.038    3.546    3.199   34.744   27.629    0.441    1.034 
 3658  121.211    3.546    3.199   34.744   27.629    0.441    1.034 
 3660  121.385    3.546    3.199   34.744   27.629    0.441    1.034 
 3661  121.559    3.545    3.199   34.745   27.630    0.441    1.034 
 3664  121.732    3.545    3.199   34.745   27.630    0.417    1.038 
 3666  121.906    3.545    3.199   34.745   27.630    0.394    1.038 
 3669  122.079    3.545    3.199   34.745   27.630    0.394    1.042 
 3672  122.253    3.544    3.199   34.746   27.630    0.371    1.042 
 3676  122.426    3.544    3.199   34.746   27.630    0.394    1.042 
 3681  122.600    3.543    3.199   34.746   27.631    0.394    1.046 
 3685  122.773    3.543    3.199   34.746   27.631    0.417    1.042 
 3686  122.947    3.543    3.199   34.746   27.631    0.417    1.042 
 3688  123.121    3.543    3.199   34.746   27.631    0.417    1.042 
 3689  123.294    3.543    3.199   34.747   27.631    0.417    1.042 
 3690  123.468    3.543    3.199   34.747   27.631    0.417    1.042 
 3691  123.641    3.542    3.199   34.747   27.632    0.417    1.038 
 3692  123.815    3.541    3.199   34.748   27.632    0.417    1.038 
 3693  123.988    3.541    3.199   34.748   27.632    0.417    1.038 
 3694  124.162    3.541    3.199   34.748   27.632    0.417    1.038 
 3695  124.509    3.541    3.199   34.748   27.632    0.417    1.038 
 3697  124.856    3.540    3.199   34.749   27.633    0.417    1.034 
 3698  125.030    3.540    3.199   34.749   27.633    0.417    1.034 
 3699  125.377    3.539    3.199   34.749   27.634    0.417    1.034 
 3700  125.551    3.539    3.199   34.749   27.634    0.417    1.034 
 3701  125.898    3.537    3.199   34.751   27.635    0.417    1.034 
 3702  126.071    3.536    3.199   34.752   27.636    0.417    1.034 
 3703  126.418    3.534    3.199   34.754   27.638    0.417    1.034 
 3704  126.592    3.533    3.199   34.755   27.639    0.394    1.034 
 3705  126.939    3.532    3.199   34.756   27.640    0.394    1.034 
 3706  127.113    3.531    3.199   34.757   27.641    0.394    1.034 
 3707  127.286    3.529    3.199   34.759   27.642    0.394    1.034 
 3708  127.460    3.528    3.199   34.760   27.643    0.394    1.038 
 3709  127.633    3.526    3.199   34.762   27.645    0.394    1.038 
 3710  127.807    3.524    3.199   34.762   27.646    0.394    1.038 
 3711  127.980    3.523    3.199   34.763   27.646    0.417    1.038 
 3712  128.154    3.523    3.199   34.764   27.647    0.417    1.038 
 3713  128.327    3.523    3.199   34.765   27.647    0.394    1.038 
 3715  128.501    3.523    3.199   34.765   27.648    0.394    1.038 
 3745  128.675    3.525    3.199   34.765   27.648    0.441    1.034 
 3746  128.848    3.525    3.199   34.765   27.648    0.441    1.034 
 3747  129.022    3.522    3.199   34.765   27.648    0.417    1.034 
 3748  129.195    3.522    3.199   34.765   27.648    0.417    1.034 
 3749  129.369    3.522    3.199   34.765   27.648    0.394    1.034 
 3750  129.716    3.522    3.199   34.766   27.648    0.417    1.034 
 3751  129.890    3.520    3.199   34.766   27.649    0.417    1.034 
 3752  130.063    3.520    3.199   34.766   27.649    0.394    1.034 
 3753  130.584    3.520    3.199   34.766   27.649    0.394    1.034 
 3754  130.757    3.520    3.199   34.766   27.649    0.394    1.034 
 3755  130.931    3.520    3.199   34.766   27.649    0.394    1.034 
 3756  131.104    3.520    3.199   34.767   27.649    0.394    1.034 
 3757  131.452    3.520    3.199   34.767   27.649    0.394    1.034 
 3758  131.625    3.520    3.199   34.767   27.649    0.394    1.034 
 3759  131.799    3.520    3.199   34.767   27.650    0.394    1.034 
 3760  132.146    3.520    3.199   34.767   27.650    0.394    1.034 
 3761  132.319    3.520    3.199   34.767   27.650    0.394    1.034 
 3762  132.493    3.520    3.200   34.774   27.655    0.371    1.034 
 3763  132.666    3.520    3.200   34.774   27.655    0.371    1.034 
 3764  132.840    3.520    3.200   34.774   27.655    0.371    1.034 
 3765  133.014    3.520    3.200   34.774   27.655    0.371    1.034 
 3766  133.187    3.522    3.200   34.774   27.655    0.348    1.034 
 3767  133.361    3.522    3.200   34.774   27.655    0.348    1.034 
 3768  133.534    3.522    3.200   34.774   27.655    0.348    1.034 
 3770  133.708    3.523    3.200   34.774   27.655    0.348    1.034 
 3773  133.881    3.523    3.200   34.774   27.655    0.348    1.034 
 3775  134.055    3.523    3.200   34.775   27.655    0.348    1.034 
 3786  134.228    3.523    3.200   34.775   27.655    0.371    1.030 
 3790  134.402    3.523    3.200   34.775   27.656    0.371    1.030 
 3792  134.576    3.524    3.200   34.775   27.656    0.394    1.030 
 3794  134.749    3.525    3.200   34.775   27.656    0.371    1.030 
 3796  134.923    3.529    3.201   34.775   27.656    0.394    1.030 
 3797  135.096    3.530    3.201   34.775   27.656    0.394    1.030 
 3799  135.270    3.534    3.201   34.778   27.657    0.394    1.030 
 3800  135.443    3.534    3.201   34.779   27.658    0.394    1.030 
 3801  135.790    3.534    3.202   34.781   27.659    0.417    1.030 
 3803  135.964    3.535    3.202   34.781   27.659    0.394    1.030 
 3804  136.138    3.535    3.202   34.781   27.659    0.394    1.030 
 3805  136.311    3.535    3.202   34.781   27.659    0.417    1.030 
 3806  136.485    3.536    3.202   34.781   27.659    0.417    1.030 
 3807  136.658    3.536    3.202   34.781   27.659    0.371    1.030 
 3808  136.832    3.537    3.202   34.781   27.659    0.371    1.030 
 3809  137.179    3.537    3.202   34.781   27.659    0.371    1.030 
 3810  137.352    3.537    3.202   34.781   27.659    0.371    1.030 
 3811  137.526    3.537    3.202   34.781   27.659    0.394    1.030 
 3812  137.700    3.537    3.202   34.781   27.659    0.371    1.030 
 3813  137.873    3.537    3.202   34.781   27.659    0.371    1.030 
 3814  138.047    3.537    3.202   34.781   27.659    0.394    1.030 
 3815  138.220    3.537    3.202   34.781   27.659    0.394    1.030 
 3816  138.394    3.537    3.202   34.781   27.659    0.371    1.030 
 3817  138.567    3.537    3.202   34.781   27.659    0.371    1.030 
 3818  138.741    3.537    3.202   34.781   27.659    0.371    1.030 
 3819  138.914    3.538    3.202   34.781   27.659    0.371    1.030 
 3820  139.088    3.538    3.202   34.781   27.659    0.371    1.030 
 3821  139.262    3.538    3.202   34.781   27.659    0.371    1.030 
 3822  139.435    3.538    3.202   34.781   27.659    0.371    1.030 
 3823  139.609    3.538    3.203   34.781   27.659    0.371    1.030 
 3825  139.782    3.538    3.203   34.781   27.659    0.371    1.030 
 3827  139.956    3.538    3.203   34.790   27.666    0.371    1.030 
 3830  140.129    3.538    3.203   34.790   27.666    0.394    1.030 
 3832  140.303    3.538    3.203   34.790   27.666    0.371    1.030 
 3836  140.476    3.538    3.203   34.790   27.666    0.371    1.030 
 3849  140.650    3.538    3.202   34.790   27.666    0.371    1.030 
 3853  140.823    3.538    3.202   34.790   27.666    0.371    1.030 
 3856  140.997    3.538    3.203   34.790   27.666    0.371    1.026 
 3857  141.171    3.538    3.203   34.790   27.666    0.371    1.026 
 3859  141.344    3.538    3.203   34.790   27.666    0.371    1.026 
 3861  141.691    3.538    3.203   34.789   27.666    0.371    1.026 
 3862  141.865    3.538    3.203   34.789   27.666    0.371    1.026 
 3863  142.038    3.538    3.203   34.789   27.666    0.371    1.023 
 3864  142.212    3.538    3.203   34.789   27.666    0.394    1.023 
 3865  142.385    3.538    3.203   34.789   27.665    0.394    1.023 
 3866  142.559    3.538    3.203   34.789   27.665    0.394    1.023 
 3867  142.733    3.538    3.203   34.789   27.665    0.394    1.023 
 3868  143.080    3.538    3.203   34.789   27.665    0.394    1.023 
 3869  143.253    3.538    3.203   34.789   27.665    0.394    1.023 
 3870  143.427    3.538    3.203   34.789   27.665    0.394    1.023 
 3871  143.774    3.538    3.203   34.788   27.665    0.394    1.023 
 3873  144.121    3.538    3.203   34.788   27.665    0.394    1.023 
 3874  144.294    3.538    3.203   34.788   27.665    0.394    1.023 
 3875  144.642    3.538    3.203   34.788   27.665    0.394    1.023 
 3876  144.815    3.538    3.203   34.788   27.665    0.394    1.023 
 3877  144.989    3.538    3.203   34.788   27.664    0.394    1.023 
 3878  145.162    3.538    3.203   34.788   27.664    0.394    1.023 
 3879  145.336    3.538    3.203   34.788   27.664    0.394    1.023 
 3880  145.683    3.538    3.203   34.787   27.664    0.394    1.023 
 3882  145.856    3.538    3.203   34.787   27.664    0.417    1.023 
 3883  146.030    3.538    3.203   34.787   27.664    0.417    1.023 
 3884  146.203    3.538    3.203   34.787   27.664    0.394    1.023 
 3885  146.377    3.538    3.203   34.787   27.664    0.394    1.023 
 3887  146.724    3.538    3.203   34.787   27.664    0.394    1.023 
 3890  146.898    3.538    3.203   34.787   27.664    0.394    1.023 
 3891  147.071    3.538    3.203   34.787   27.664    0.394    1.023 
 3896  147.245    3.539    3.203   34.787   27.664    0.371    1.026 
 3910  147.418    3.539    3.203   34.787   27.664    0.348    1.026 
 3913  147.592    3.539    3.203   34.787   27.664    0.371    1.026 
 3916  147.765    3.539    3.203   34.787   27.664    0.371    1.026 
 3917  147.939    3.539    3.203   34.787   27.664    0.371    1.026 
 3918  148.112    3.539    3.203   34.787   27.664    0.371    1.026 
 3920  148.286    3.539    3.203   34.787   27.664    0.371    1.026 
 3921  148.460    3.539    3.203   34.787   27.664    0.371    1.026 
 3922  148.633    3.539    3.203   34.787   27.664    0.371    1.026 
 3923  148.807    3.539    3.203   34.787   27.664    0.371    1.026 
 3924  148.980    3.539    3.204   34.790   27.666    0.371    1.026 
 3925  149.154    3.539    3.204   34.790   27.666    0.371    1.026 
 3926  149.327    3.539    3.204   34.790   27.666    0.371    1.026 
 3927  149.501    3.539    3.204   34.790   27.666    0.371    1.026 
 3928  149.674    3.539    3.204   34.791   27.667    0.371    1.026 
 3929  149.848    3.540    3.204   34.795   27.669    0.371    1.026 
 3930  150.021    3.540    3.204   34.795   27.669    0.371    1.026 
 3931  150.195    3.540    3.204   34.795   27.669    0.371    1.026 
 3932  150.369    3.540    3.204   34.795   27.669    0.348    1.026 
 3933  150.542    3.543    3.204   34.795   27.669    0.348    1.023 
 3934  150.716    3.544    3.204   34.795   27.669    0.348    1.023 
 3935  150.889    3.545    3.204   34.795   27.669    0.348    1.023 
 3936  151.063    3.546    3.204   34.795   27.669    0.324    1.023 
 3937  151.236    3.546    3.204   34.795   27.669    0.324    1.023 
 3938  151.410    3.547    3.205   34.795   27.669    0.348    1.023 
 3939  151.583    3.547    3.205   34.795   27.669    0.348    1.023 
 3941  151.757    3.547    3.205   34.795   27.669    0.348    1.023 
 3942  151.930    3.548    3.205   34.795   27.669    0.348    1.023 
 3945  152.104    3.548    3.205   34.795   27.669    0.324    1.023 
 3946  152.278    3.550    3.205   34.795   27.669    0.348    1.023 
 3948  152.451    3.552    3.205   34.795   27.669    0.348    1.023 
 3950  152.625    3.553    3.205   34.795   27.669    0.371    1.023 
 3952  152.798    3.555    3.205   34.795   27.669    0.371    1.023 
 3958  152.972    3.558    3.206   34.795   27.669    0.394    1.023 
 3959  153.145    3.559    3.206   34.796   27.669    0.394    1.023 
 3961  153.319    3.560    3.206   34.796   27.669    0.394    1.023 
 3964  153.492    3.561    3.206   34.796   27.669    0.394    1.023 
 3966  153.666    3.561    3.206   34.796   27.669    0.394    1.023 
 3968  153.839    3.561    3.206   34.796   27.669    0.394    1.023 
 3971  154.013    3.561    3.206   34.796   27.669    0.371    1.023 
 3973  154.186    3.561    3.206   34.797   27.669    0.371    1.023 
 3974  154.360    3.562    3.206   34.798   27.670    0.371    1.023 
 3976  154.534    3.563    3.207   34.802   27.673    0.371    1.023 
 3977  154.707    3.563    3.207   34.802   27.673    0.371    1.019 
 3978  154.881    3.563    3.207   34.802   27.673    0.371    1.019 
 3980  155.054    3.563    3.207   34.802   27.673    0.348    1.023 
 3982  155.228    3.563    3.207   34.802   27.673    0.348    1.019 
 3983  155.401    3.563    3.207   34.802   27.673    0.348    1.019 
 3985  155.575    3.564    3.207   34.802   27.673    0.348    1.019 
 3987  155.748    3.564    3.207   34.802   27.673    0.348    1.019 
 3988  155.922    3.564    3.207   34.802   27.673    0.348    1.019 
 3990  156.095    3.564    3.207   34.802   27.673    0.348    1.019 
 3991  156.269    3.564    3.207   34.802   27.673    0.348    1.019 
 3993  156.442    3.564    3.207   34.802   27.673    0.348    1.019 
 3994  156.616    3.565    3.207   34.801   27.672    0.348    1.019 
 3996  156.790    3.565    3.207   34.801   27.672    0.348    1.019 
 3997  156.963    3.565    3.207   34.801   27.672    0.348    1.019 
 3999  157.137    3.565    3.207   34.800   27.672    0.348    1.019 
 4000  157.310    3.565    3.207   34.800   27.672    0.348    1.019 
 4003  157.484    3.565    3.207   34.800   27.672    0.348    1.019 
 4004  157.657    3.566    3.207   34.799   27.671    0.348    1.019 
 4005  157.831    3.566    3.207   34.799   27.671    0.348    1.019 
 4007  158.004    3.566    3.207   34.799   27.671    0.348    1.019 
 4009  158.178    3.566    3.207   34.799   27.670    0.348    1.019 
 4011  158.351    3.566    3.207   34.799   27.670    0.348    1.023 
 4012  158.525    3.566    3.207   34.799   27.670    0.348    1.026 
 4014  158.698    3.566    3.207   34.798   27.670    0.324    1.073 
 4015  158.872    3.566    3.207   34.798   27.670    0.324    1.073 
 4017  159.046    3.566    3.207   34.798   27.670    0.348    1.081 
 4019  159.219    3.566    3.207   34.798   27.670    0.348    1.081 
 4020  159.393    3.566    3.207   34.798   27.670    0.348    1.081 
 4022  159.566    3.566    3.207   34.798   27.670    0.324    1.081 
 4024  159.740    3.566    3.207   34.798   27.670    0.324    1.081 
 4025  159.913    3.566    3.207   34.798   27.670    0.324    1.081 
 4027  160.260    3.566    3.207   34.798   27.670    0.324    1.073 
 4029  160.434    3.566    3.207   34.798   27.670    0.324    1.073 
 4031  160.607    3.566    3.207   34.798   27.670    0.324    1.065 
 4033  160.781    3.566    3.207   34.798   27.670    0.348    1.049 
 4034  160.954    3.566    3.207   34.798   27.670    0.348    1.049 
 4036  161.128    3.566    3.207   34.798   27.670    0.348    1.042 
 4039  161.302    3.567    3.208   34.807   27.677    0.371    1.038 
 4040  161.475    3.567    3.208   34.807   27.677    0.371    1.034 
 4041  161.649    3.567    3.208   34.807   27.677    0.348    1.034 
 4044  161.822    3.567    3.208   34.807   27.677    0.371    1.026 
 4046  161.996    3.567    3.208   34.807   27.677    0.371    1.023 
 4047  162.169    3.567    3.208   34.807   27.677    0.371    1.023 
 4048  162.343    3.567    3.208   34.807   27.677    0.371    1.023 
 4050  162.516    3.567    3.208   34.807   27.677    0.371    1.023 
 4052  162.690    3.567    3.208   34.807   27.677    0.371    1.023 
 4053  162.863    3.567    3.208   34.807   27.677    0.348    1.023 
 4054  163.037    3.567    3.208   34.807   27.677    0.371    1.023 
 4055  163.210    3.567    3.208   34.807   27.677    0.371    1.023 
 4056  163.384    3.567    3.208   34.807   27.677    0.371    1.023 
 4058  163.557    3.567    3.208   34.807   27.677    0.371    1.023 
 4059  163.731    3.567    3.208   34.807   27.677    0.371    1.023 
 4060  163.905    3.567    3.208   34.807   27.677    0.371    1.023 
 4062  164.252    3.566    3.208   34.807   27.677    0.371    1.023 
 4064  164.425    3.566    3.208   34.807   27.677    0.371    1.023 
 4065  164.599    3.566    3.207   34.797   27.670    0.371    1.023 
 4066  164.772    3.565    3.207   34.797   27.670    0.371    1.026 
 4068  165.119    3.564    3.207   34.797   27.670    0.371    1.026 
 4070  165.293    3.564    3.207   34.797   27.670    0.371    1.026 
 4072  165.466    3.564    3.207   34.797   27.670    0.371    1.026 
 4075  165.640    3.564    3.207   34.797   27.670    0.371    1.026 
 4082  165.813    3.564    3.207   34.797   27.670    0.371    1.023 
 4096  165.987    3.565    3.207   34.797   27.670    0.371    1.023 
 4097  166.160    3.565    3.207   34.797   27.670    0.371    1.023 
 4099  166.334    3.563    3.207   34.797   27.670    0.348    1.023 
 4100  166.507    3.563    3.207   34.797   27.670    0.348    1.023 
 4102  166.681    3.563    3.207   34.797   27.670    0.348    1.023 
 4103  166.855    3.563    3.207   34.797   27.670    0.348    1.023 
 4104  167.028    3.562    3.207   34.797   27.670    0.348    1.023 
 4105  167.202    3.562    3.207   34.797   27.670    0.348    1.023 
 4106  167.375    3.562    3.207   34.797   27.670    0.348    1.023 
 4107  167.549    3.562    3.207   34.797   27.670    0.348    1.023 
 4108  167.896    3.562    3.207   34.797   27.670    0.348    1.023 
 4109  168.069    3.562    3.207   34.797   27.670    0.348    1.023 
 4110  168.243    3.562    3.207   34.797   27.670    0.348    1.023 
 4111  168.590    3.562    3.207   34.797   27.670    0.348    1.023 
 4112  168.763    3.562    3.207   34.797   27.670    0.324    1.023 
 4113  168.937    3.562    3.207   34.797   27.670    0.324    1.023 
 4114  169.110    3.562    3.207   34.797   27.670    0.324    1.023 
 4115  169.284    3.562    3.207   34.797   27.670    0.324    1.023 
 4116  169.631    3.562    3.207   34.797   27.670    0.324    1.023 
 4118  169.978    3.561    3.207   34.797   27.670    0.324    1.023 
 4119  170.152    3.561    3.207   34.797   27.670    0.324    1.023 
 4120  170.325    3.561    3.207   34.797   27.670    0.348    1.019 
 4121  170.499    3.561    3.207   34.797   27.670    0.348    1.019 
 4122  170.672    3.561    3.207   34.797   27.670    0.348    1.019 
 4123  170.846    3.561    3.207   34.797   27.670    0.348    1.019 
 4124  171.019    3.561    3.207   34.797   27.670    0.348    1.019 
 4126  171.193    3.561    3.207   34.797   27.670    0.348    1.019 
 4127  171.366    3.561    3.207   34.797   27.670    0.348    1.019 
 4129  171.540    3.561    3.207   34.797   27.670    0.348    1.019 
 4130  171.713    3.561    3.207   34.797   27.670    0.348    1.019 
 4133  171.887    3.561    3.207   34.797   27.670    0.348    1.015 
 4135  172.060    3.561    3.207   34.797   27.670    0.371    1.015 
 4139  172.234    3.561    3.207   34.797   27.670    0.371    1.011 
 4142  172.407    3.562    3.207   34.797   27.670    0.371    1.008 
 4146  172.581    3.562    3.207   34.797   27.670    0.348    1.000 
 4149  172.755    3.562    3.208   34.806   27.677    0.348    0.996 
 4152  172.928    3.562    3.208   34.806   27.677    0.348    0.996 
 4154  173.102    3.562    3.208   34.806   27.677    0.348    0.996 
 4157  173.275    3.562    3.208   34.806   27.677    0.348    0.989 
 4159  173.449    3.562    3.208   34.806   27.677    0.348    0.985 
 4161  173.622    3.562    3.208   34.806   27.677    0.348    0.985 
 4163  173.796    3.562    3.208   34.806   27.677    0.348    0.985 
 4165  173.969    3.562    3.208   34.806   27.677    0.348    0.985 
 4167  174.143    3.562    3.208   34.806   27.677    0.348    0.985 
 4170  174.490    3.562    3.208   34.806   27.677    0.348    0.989 
 4174  174.663    3.562    3.208   34.806   27.677    0.394    0.989 
 4175  174.837    3.562    3.208   34.806   27.677    0.371    0.989 
 4177  175.010    3.562    3.208   34.806   27.676    0.348    0.989 
 4179  175.184    3.563    3.208   34.805   27.675    0.324    0.989 
 4180  175.357    3.563    3.208   34.805   27.675    0.324    0.989 
 4182  175.531    3.563    3.208   34.804   27.675    0.324    0.989 
 4183  175.704    3.563    3.208   34.804   27.675    0.324    0.989 
 4184  175.878    3.563    3.208   34.804   27.675    0.324    0.989 
 4186  176.051    3.563    3.208   34.804   27.675    0.324    0.985 
 4187  176.225    3.563    3.208   34.804   27.675    0.324    0.985 
 4188  176.399    3.563    3.208   34.804   27.675    0.324    0.985 
 4189  176.572    3.563    3.208   34.804   27.675    0.324    0.985 
 4190  176.746    3.563    3.208   34.804   27.675    0.324    0.985 
 4191  176.919    3.563    3.208   34.804   27.675    0.324    0.985 
 4192  177.093    3.563    3.208   34.804   27.675    0.371    0.985 
 4193  177.266    3.563    3.208   34.804   27.674    0.324    0.985 
 4194  177.440    3.564    3.208   34.802   27.673    0.324    0.985 
 4195  177.613    3.564    3.208   34.802   27.673    0.324    0.985 
 4196  177.787    3.564    3.208   34.802   27.673    0.324    0.985 
 4197  177.960    3.564    3.208   34.802   27.673    0.348    0.985 
 4198  178.134    3.564    3.208   34.802   27.673    0.348    0.985 
 4199  178.307    3.564    3.208   34.802   27.673    0.348    0.985 
 4200  178.481    3.564    3.208   34.802   27.673    0.348    0.985 
 4201  178.828    3.564    3.208   34.802   27.673    0.371    0.989 
 4203  179.001    3.564    3.208   34.802   27.673    0.394    0.989 
 4204  179.175    3.564    3.208   34.801   27.673    0.371    0.989 
 4205  179.348    3.564    3.208   34.801   27.673    0.371    0.989 
 4206  179.522    3.564    3.208   34.801   27.672    0.394    0.989 
 4207  179.695    3.564    3.208   34.801   27.672    0.394    0.989 
 4208  179.869    3.564    3.208   34.801   27.672    0.394    0.989 
 4209  180.042    3.564    3.208   34.801   27.672    0.394    0.989 
 4211  180.216    3.564    3.208   34.801   27.672    0.394    0.989 
 4213  180.390    3.564    3.208   34.801   27.672    0.348    0.989 
 4216  180.563    3.565    3.208   34.801   27.672    0.348    0.989 
 4229  180.737    3.565    3.208   34.801   27.672    0.348    0.978 
 4234  180.910    3.565    3.208   34.801   27.672    0.348    0.978 
 4236  181.084    3.565    3.208   34.801   27.672    0.348    0.978 
 4237  181.257    3.565    3.208   34.801   27.672    0.348    0.978 
 4239  181.431    3.565    3.208   34.801   27.672    0.348    0.978 
 4241  181.778    3.566    3.208   34.801   27.672    0.348    0.978 
 4243  181.951    3.566    3.208   34.801   27.672    0.348    0.978 
 4244  182.125    3.566    3.209   34.806   27.676    0.348    0.978 
 4245  182.298    3.567    3.209   34.806   27.676    0.348    0.978 
 4246  182.472    3.567    3.209   34.806   27.676    0.348    0.978 
 4247  182.645    3.567    3.209   34.806   27.676    0.348    0.978 
 4248  182.819    3.567    3.209   34.806   27.676    0.348    0.978 
 4249  182.992    3.568    3.209   34.806   27.676    0.324    0.978 
 4250  183.339    3.568    3.209   34.806   27.676    0.348    0.978 
 4251  183.513    3.568    3.209   34.807   27.676    0.348    0.978 
 4252  183.686    3.568    3.209   34.807   27.676    0.324    0.978 
 4253  183.860    3.568    3.209   34.807   27.676    0.324    0.978 
 4254  184.033    3.568    3.209   34.807   27.676    0.324    0.978 
 4256  184.207    3.568    3.209   34.807   27.676    0.348    0.978 
 4257  184.380    3.568    3.209   34.807   27.676    0.348    0.978 
 4258  184.554    3.568    3.209   34.807   27.676    0.348    0.978 
 4259  184.728    3.568    3.209   34.807   27.676    0.348    0.978 
 4260  184.901    3.568    3.209   34.806   27.676    0.348    0.978 
 4262  185.075    3.568    3.209   34.806   27.676    0.348    0.978 
 4264  185.248    3.567    3.209   34.806   27.676    0.348    0.978 
 4267  185.422    3.567    3.209   34.806   27.676    0.348    0.978 
 4268  185.595    3.567    3.209   34.806   27.676    0.348    0.978 
 4272  185.769    3.567    3.209   34.806   27.676    0.348    0.975 
 4276  185.942    3.567    3.209   34.806   27.676    0.324    0.975 
 4280  186.116    3.567    3.209   34.806   27.676    0.324    0.975 
 4283  186.289    3.568    3.209   34.805   27.675    0.324    0.978 
 4284  186.463    3.568    3.209   34.805   27.675    0.324    0.978 
 4287  186.636    3.568    3.209   34.805   27.675    0.324    0.978 
 4289  186.810    3.568    3.209   34.805   27.675    0.324    0.978 
 4291  186.983    3.569    3.209   34.804   27.674    0.324    0.978 
 4292  187.157    3.569    3.209   34.804   27.674    0.324    0.978 
 4293  187.330    3.569    3.209   34.804   27.674    0.324    0.978 
 4295  187.504    3.569    3.209   34.804   27.674    0.324    0.978 
 4296  187.677    3.569    3.209   34.803   27.674    0.324    0.978 
 4297  187.851    3.569    3.209   34.803   27.674    0.324    0.978 
 4298  188.024    3.569    3.209   34.803   27.674    0.324    0.978 
 4299  188.198    3.569    3.209   34.803   27.674    0.324    0.978 
 4300  188.371    3.569    3.209   34.803   27.674    0.324    0.978 
 4302  188.545    3.569    3.209   34.803   27.674    0.324    0.978 
 4303  188.718    3.569    3.209   34.803   27.674    0.324    0.978 
 4304  188.892    3.569    3.209   34.803   27.674    0.324    0.978 
 4305  189.065    3.569    3.209   34.803   27.674    0.324    0.978 
 4306  189.239    3.569    3.209   34.803   27.674    0.324    0.978 
 4308  189.412    3.569    3.209   34.803   27.674    0.324    0.978 
 4309  189.586    3.569    3.209   34.803   27.674    0.324    0.978 
 4311  189.759    3.569    3.209   34.803   27.674    0.324    0.978 
 4312  189.933    3.569    3.209   34.803   27.674    0.324    0.978 
 4314  190.106    3.569    3.210   34.812   27.681    0.324    0.978 
 4315  190.280    3.569    3.210   34.812   27.681    0.324    0.978 
 4318  190.453    3.569    3.210   34.812   27.681    0.301    0.978 
 4319  190.627    3.569    3.210   34.812   27.681    0.301    0.978 
 4322  190.801    3.569    3.210   34.812   27.681    0.324    0.978 
 4324  190.974    3.569    3.210   34.812   27.681    0.324    0.978 
 4326  191.148    3.570    3.210   34.812   27.681    0.324    0.978 
 4328  191.321    3.570    3.210   34.812   27.681    0.324    0.978 
 4330  191.495    3.570    3.210   34.812   27.681    0.348    0.978 
 4332  191.668    3.570    3.210   34.812   27.681    0.348    0.978 
 4334  191.842    3.570    3.210   34.812   27.681    0.348    0.978 
 4335  192.015    3.570    3.210   34.812   27.681    0.324    0.978 
 4337  192.189    3.570    3.210   34.812   27.680    0.324    0.978 
 4338  192.362    3.570    3.210   34.812   27.680    0.348    0.978 
 4340  192.536    3.570    3.210   34.812   27.680    0.348    0.978 
 4342  192.709    3.571    3.210   34.811   27.679    0.324    0.978 
 4343  192.883    3.571    3.210   34.810   27.679    0.324    0.978 
 4345  193.056    3.571    3.210   34.810   27.679    0.324    0.978 
 4347  193.403    3.571    3.210   34.810   27.679    0.348    0.978 
 4350  193.577    3.571    3.210   34.810   27.679    0.324    0.978 
 4352  193.750    3.571    3.210   34.810   27.679    0.324    0.978 
 4355  193.924    3.571    3.210   34.810   27.679    0.324    0.978 
 4356  194.097    3.572    3.210   34.810   27.679    0.324    0.978 
 4358  194.271    3.574    3.210   34.810   27.679    0.324    0.978 
 4361  194.444    3.574    3.210   34.810   27.679    0.301    0.978 
 4364  194.618    3.574    3.210   34.810   27.679    0.324    0.978 
 4365  194.791    3.574    3.210   34.810   27.679    0.324    0.978 
 4368  194.965    3.575    3.210   34.810   27.679    0.324    0.982 
 4370  195.138    3.575    3.210   34.810   27.679    0.324    0.982 
 4373  195.312    3.575    3.210   34.810   27.679    0.301    0.982 
 4375  195.485    3.575    3.211   34.810   27.679    0.301    0.982 
 4376  195.659    3.576    3.211   34.810   27.679    0.301    0.982 
 4379  195.832    3.576    3.211   34.811   27.679    0.324    0.982 
 4380  196.006    3.577    3.211   34.812   27.680    0.301    0.982 
 4381  196.179    3.578    3.211   34.812   27.680    0.301    0.982 
 4382  196.353    3.579    3.211   34.813   27.681    0.301    0.982 
 4384  196.526    3.579    3.211   34.814   27.681    0.301    0.982 
 4386  196.700    3.580    3.211   34.814   27.681    0.324    0.982 
 4388  196.873    3.581    3.211   34.814   27.681    0.301    0.982 
 4389  197.047    3.582    3.211   34.814   27.681    0.324    0.982 
 4390  197.220    3.582    3.212   34.814   27.681    0.348    0.982 
 4392  197.394    3.583    3.212   34.814   27.681    0.348    0.982 
 4393  197.567    3.583    3.212   34.814   27.681    0.371    0.982 
 4394  197.741    3.584    3.212   34.814   27.681    0.371    0.982 
 4396  197.914    3.585    3.212   34.814   27.682    0.371    0.982 
 4397  198.088    3.586    3.212   34.816   27.682    0.371    0.978 
 4398  198.261    3.587    3.212   34.817   27.682    0.371    0.978 
 4400  198.435    3.588    3.212   34.817   27.682    0.394    0.978 
 4402  198.608    3.589    3.212   34.817   27.682    0.394    0.978 
 4403  198.782    3.589    3.212   34.817   27.682    0.394    0.978 
 4404  198.955    3.589    3.212   34.817   27.682    0.394    0.978 
 4406  199.129    3.591    3.213   34.817   27.682    0.394    0.978 
 4407  199.302    3.591    3.213   34.817   27.682    0.394    0.978 
 4409  199.476    3.592    3.213   34.817   27.682    0.394    0.978 
 4411  199.649    3.593    3.213   34.817   27.682    0.371    0.978 
 4412  199.823    3.593    3.213   34.817   27.682    0.371    0.978 
 4414  199.996    3.594    3.213   34.817   27.682    0.371    0.978 
 4416  200.170    3.595    3.213   34.817   27.682    0.348    0.978 
 4417  200.343    3.595    3.213   34.817   27.682    0.348    0.978 
 4419  200.517    3.595    3.213   34.818   27.683    0.348    0.978 
 4420  200.690    3.595    3.213   34.819   27.683    0.348    0.978 
 4423  200.864    3.596    3.213   34.819   27.683    0.348    0.978 
 4425  201.038    3.596    3.213   34.819   27.683    0.324    0.978 
 4426  201.211    3.596    3.213   34.819   27.683    0.324    0.978 
 4428  201.385    3.597    3.213   34.818   27.683    0.348    0.978 
 4430  201.558    3.598    3.214   34.818   27.684    0.348    0.978 
 4433  201.732    3.598    3.214   34.818   27.684    0.348    0.978 
 4435  201.905    3.598    3.214   34.819   27.684    0.348    0.978 
 4437  202.079    3.599    3.214   34.820   27.684    0.348    0.978 
 4439  202.252    3.599    3.214   34.821   27.685    0.324    0.978 
 4441  202.426    3.601    3.214   34.821   27.685    0.324    0.978 
 4442  202.599    3.601    3.214   34.821   27.685    0.324    0.978 
 4444  202.773    3.603    3.214   34.822   27.685    0.324    0.978 
 4446  202.946    3.605    3.214   34.823   27.686    0.301    0.978 
 4447  203.120    3.606    3.214   34.824   27.686    0.324    0.978 
 4448  203.293    3.608    3.215   34.825   27.687    0.301    0.978 
 4450  203.467    3.611    3.215   34.825   27.687    0.301    0.978 
 4452  203.640    3.612    3.215   34.825   27.687    0.278    0.975 
 4453  203.814    3.613    3.215   34.825   27.687    0.301    0.975 
 4454  203.987    3.614    3.216   34.827   27.688    0.301    0.975 
 4455  204.161    3.614    3.216   34.827   27.688    0.324    0.975 
 4457  204.334    3.615    3.216   34.827   27.688    0.324    0.975 
 4458  204.508    3.615    3.216   34.827   27.688    0.324    0.975 
 4460  204.855    3.615    3.216   34.827   27.688    0.324    0.975 
 4462  205.028    3.615    3.216   34.827   27.688    0.324    0.975 
 4463  205.202    3.615    3.216   34.827   27.688    0.301    0.975 
 4464  205.375    3.615    3.216   34.827   27.688    0.324    0.975 
 4466  205.549    3.615    3.216   34.827   27.688    0.301    0.975 
 4467  205.722    3.615    3.216   34.827   27.688    0.324    0.975 
 4469  205.896    3.616    3.216   34.827   27.688    0.324    0.975 
 4471  206.069    3.616    3.216   34.827   27.688    0.301    0.975 
 4472  206.243    3.616    3.216   34.827   27.688    0.301    0.975 
 4475  206.416    3.616    3.216   34.827   27.688    0.301    0.975 
 4477  206.590    3.616    3.216   34.827   27.688    0.324    0.975 
 4479  206.763    3.616    3.216   34.827   27.688    0.301    0.975 
 4481  206.937    3.616    3.216   34.827   27.688    0.301    0.978 
 4484  207.110    3.617    3.216   34.827   27.688    0.324    0.978 
 4488  207.284    3.617    3.216   34.827   27.688    0.324    0.978 
 4490  207.457    3.617    3.216   34.827   27.688    0.348    0.978 
 4491  207.631    3.617    3.216   34.827   27.688    0.348    0.978 
 4493  207.804    3.617    3.216   34.827   27.688    0.348    0.978 
 4495  207.978    3.618    3.216   34.827   27.688    0.324    0.978 
 4496  208.151    3.618    3.216   34.827   27.688    0.348    0.978 
 4498  208.325    3.618    3.216   34.827   27.688    0.324    0.978 
 4499  208.498    3.619    3.216   34.827   27.688    0.324    0.978 
 4501  208.672    3.620    3.217   34.830   27.690    0.324    0.978 
 4502  208.845    3.620    3.217   34.830   27.690    0.324    0.978 
 4503  209.019    3.620    3.217   34.830   27.690    0.324    0.978 
 4505  209.366    3.620    3.217   34.830   27.690    0.324    0.978 
 4506  209.539    3.621    3.217   34.830   27.690    0.324    0.978 
 4508  209.713    3.621    3.217   34.830   27.690    0.324    0.978 
 4509  209.886    3.621    3.217   34.830   27.690    0.324    0.978 
 4510  210.060    3.621    3.217   34.830   27.690    0.324    0.978 
 4512  210.407    3.621    3.217   34.830   27.690    0.301    0.978 
 4514  210.580    3.621    3.217   34.830   27.690    0.324    0.978 
 4515  210.754    3.622    3.217   34.830   27.690    0.324    0.978 
 4516  210.927    3.622    3.217   34.830   27.690    0.324    0.978 
 4519  211.101    3.622    3.217   34.830   27.690    0.324    0.978 
 4520  211.274    3.622    3.217   34.830   27.690    0.324    0.978 
 4521  211.448    3.622    3.217   34.830   27.690    0.324    0.978 
 4523  211.621    3.622    3.217   34.830   27.690    0.324    0.978 
 4525  211.795    3.622    3.217   34.830   27.689    0.324    0.978 
 4526  211.968    3.622    3.217   34.830   27.689    0.324    0.975 
 4528  212.142    3.622    3.217   34.830   27.689    0.324    0.975 
 4531  212.315    3.622    3.217   34.829   27.689    0.324    0.975 
 4534  212.489    3.623    3.217   34.828   27.688    0.324    0.978 
 4536  212.662    3.623    3.217   34.828   27.688    0.324    0.978 
 4541  212.836    3.623    3.217   34.828   27.688    0.324    0.978 
 4544  213.009    3.624    3.217   34.828   27.688    0.324    0.978 
 4547  213.182    3.624    3.217   34.828   27.688    0.324    0.978 
 4549  213.356    3.624    3.217   34.828   27.688    0.348    0.978 
 4553  213.529    3.624    3.217   34.828   27.688    0.348    0.978 
 4555  213.703    3.625    3.217   34.828   27.688    0.348    0.978 
 4557  213.876    3.625    3.217   34.828   27.688    0.348    0.978 
 4559  214.050    3.625    3.217   34.828   27.688    0.348    0.978 
 4560  214.223    3.626    3.217   34.828   27.688    0.348    0.978 
 4562  214.397    3.626    3.217   34.828   27.688    0.348    0.978 
 4563  214.570    3.627    3.218   34.832   27.690    0.348    0.978 
 4565  214.744    3.628    3.218   34.832   27.690    0.348    0.978 
 4566  214.917    3.628    3.218   34.832   27.690    0.348    0.978 
 4567  215.091    3.628    3.218   34.832   27.690    0.348    0.978 
 4568  215.264    3.628    3.218   34.832   27.690    0.348    0.978 
 4569  215.438    3.628    3.218   34.832   27.690    0.348    0.978 
 4570  215.611    3.628    3.218   34.832   27.690    0.348    0.982 
 4571  215.785    3.628    3.218   34.832   27.690    0.348    0.982 
 4572  215.958    3.629    3.218   34.832   27.690    0.348    0.982 
 4573  216.132    3.629    3.218   34.832   27.690    0.348    0.982 
 4574  216.305    3.629    3.218   34.832   27.690    0.348    0.982 
 4575  216.479    3.629    3.218   34.832   27.690    0.348    0.978 
 4577  216.826    3.629    3.218   34.831   27.690    0.348    0.978 
 4578  216.999    3.629    3.218   34.831   27.690    0.324    0.978 
 4579  217.346    3.629    3.218   34.831   27.690    0.324    0.978 
 4581  217.520    3.630    3.218   34.830   27.689    0.324    0.975 
 4582  217.693    3.630    3.218   34.830   27.689    0.324    0.975 
 4583  217.867    3.630    3.218   34.830   27.689    0.324    0.975 
 4584  218.040    3.630    3.218   34.830   27.689    0.324    0.971 
 4585  218.214    3.630    3.218   34.830   27.689    0.324    0.971 
 4586  218.387    3.630    3.218   34.830   27.689    0.324    0.971 
 4587  218.561    3.630    3.218   34.829   27.688    0.324    0.971 
 4588  218.734    3.630    3.218   34.829   27.688    0.324    0.971 
 4589  218.908    3.630    3.218   34.829   27.688    0.324    0.971 
 4591  219.081    3.630    3.218   34.829   27.688    0.324    0.971 
 4592  219.255    3.630    3.218   34.829   27.688    0.301    0.971 
 4595  219.428    3.630    3.218   34.829   27.688    0.324    0.971 
 4597  219.602    3.630    3.218   34.829   27.688    0.324    0.975 
 4603  219.775    3.631    3.218   34.828   27.687    0.324    0.975 
 4611  219.949    3.631    3.218   34.828   27.687    0.324    0.971 
 4615  220.122    3.631    3.218   34.828   27.687    0.324    0.971 
 4618  220.296    3.631    3.218   34.828   27.687    0.324    0.971 
 4620  220.469    3.631    3.218   34.828   27.687    0.324    0.971 
 4622  220.643    3.631    3.218   34.828   27.687    0.324    0.971 
 4623  220.816    3.631    3.218   34.828   27.687    0.348    0.971 
 4625  221.163    3.631    3.218   34.828   27.687    0.348    0.971 
 4626  221.337    3.631    3.218   34.828   27.687    0.348    0.971 
 4627  221.510    3.631    3.218   34.828   27.687    0.348    0.971 
 4628  221.684    3.631    3.218   34.828   27.687    0.348    0.971 
 4629  221.857    3.631    3.218   34.828   27.687    0.348    0.971 
 4630  222.031    3.631    3.219   34.835   27.693    0.348    0.971 
 4631  222.204    3.631    3.219   34.835   27.693    0.348    0.971 
 4632  222.378    3.632    3.219   34.835   27.693    0.348    0.971 
 4633  222.725    3.632    3.219   34.835   27.693    0.348    0.971 
 4635  223.071    3.632    3.219   34.835   27.693    0.348    0.971 
 4636  223.245    3.633    3.219   34.835   27.693    0.348    0.971 
 4637  223.418    3.633    3.219   34.835   27.693    0.324    0.971 
 4638  223.592    3.633    3.219   34.835   27.693    0.348    0.971 
 4639  223.765    3.633    3.219   34.835   27.693    0.348    0.971 
 4640  223.939    3.633    3.219   34.835   27.693    0.348    0.971 
 4641  224.112    3.633    3.219   34.835   27.693    0.348    0.971 
 4642  224.286    3.633    3.219   34.835   27.693    0.348    0.971 
 4643  224.459    3.633    3.219   34.835   27.693    0.348    0.971 
 4644  224.633    3.633    3.219   34.835   27.693    0.348    0.971 
 4645  224.806    3.633    3.219   34.835   27.693    0.348    0.971 
 4647  224.980    3.633    3.219   34.835   27.692    0.324    0.971 
 4649  225.153    3.634    3.219   34.834   27.692    0.301    0.971 
 4654  225.327    3.634    3.219   34.834   27.691    0.324    0.971 
 4670  225.500    3.633    3.219   34.834   27.691    0.324    0.971 
 4673  225.674    3.634    3.219   34.833   27.691    0.324    0.971 
 4674  225.847    3.635    3.219   34.832   27.690    0.324    0.971 
 4676  226.021    3.635    3.219   34.832   27.690    0.324    0.971 
 4677  226.194    3.635    3.219   34.832   27.690    0.324    0.971 
 4679  226.368    3.635    3.219   34.832   27.690    0.324    0.971 
 4680  226.541    3.635    3.219   34.832   27.690    0.324    0.971 
 4681  226.715    3.635    3.219   34.832   27.690    0.348    0.975 
 4682  227.062    3.635    3.219   34.831   27.690    0.348    0.975 
 4684  227.235    3.635    3.219   34.831   27.689    0.348    0.975 
 4685  227.409    3.636    3.219   34.830   27.688    0.348    0.975 
 4686  227.582    3.636    3.219   34.830   27.688    0.348    0.975 
 4687  227.929    3.636    3.219   34.830   27.688    0.348    0.975 
 4688  228.103    3.636    3.219   34.830   27.688    0.348    0.971 
 4689  228.276    3.636    3.219   34.830   27.688    0.348    0.971 
 4690  228.450    3.636    3.219   34.830   27.688    0.324    0.971 
 4691  228.623    3.636    3.219   34.830   27.688    0.324    0.971 
 4692  228.797    3.636    3.219   34.830   27.688    0.324    0.971 
 4693  228.970    3.636    3.219   34.830   27.688    0.324    0.971 
 4694  229.143    3.636    3.219   34.830   27.688    0.324    0.971 
 4695  229.317    3.636    3.219   34.830   27.688    0.324    0.967 
 4696  229.490    3.636    3.219   34.830   27.688    0.324    0.967 
 4697  229.664    3.636    3.219   34.830   27.688    0.324    0.967 
 4699  229.837    3.637    3.219   34.830   27.688    0.324    0.967 
 4700  230.011    3.637    3.219   34.830   27.688    0.324    0.967 
 4702  230.184    3.637    3.220   34.838   27.694    0.324    0.967 
 4703  230.358    3.637    3.220   34.838   27.694    0.324    0.967 
 4705  230.531    3.637    3.220   34.838   27.694    0.324    0.967 
 4707  230.705    3.637    3.220   34.838   27.694    0.324    0.967 
 4709  230.878    3.637    3.220   34.838   27.694    0.324    0.967 
 4712  231.052    3.637    3.220   34.838   27.694    0.324    0.967 
 4715  231.225    3.637    3.220   34.838   27.694    0.348    0.971 
 4718  231.399    3.638    3.220   34.838   27.694    0.324    0.967 
 4720  231.572    3.638    3.220   34.838   27.694    0.324    0.967 
 4722  231.746    3.638    3.220   34.838   27.694    0.324    0.967 
 4724  231.919    3.638    3.220   34.838   27.694    0.324    0.967 
 4726  232.093    3.638    3.220   34.838   27.694    0.324    0.967 
 4728  232.266    3.638    3.220   34.837   27.694    0.324    0.967 
 4730  232.440    3.638    3.220   34.837   27.694    0.324    0.967 
 4731  232.613    3.638    3.220   34.837   27.694    0.324    0.967 
 4733  232.787    3.638    3.220   34.837   27.694    0.324    0.967 
 4735  232.960    3.638    3.220   34.837   27.694    0.324    0.967 
 4736  233.134    3.638    3.220   34.837   27.694    0.324    0.967 
 4738  233.307    3.638    3.220   34.837   27.694    0.348    0.971 
 4740  233.481    3.638    3.220   34.837   27.693    0.348    0.971 
 4741  233.654    3.638    3.220   34.837   27.693    0.348    0.971 
 4744  233.827    3.638    3.220   34.837   27.693    0.324    0.967 
 4746  234.001    3.638    3.220   34.836   27.693    0.324    0.967 
 4747  234.174    3.638    3.220   34.836   27.693    0.324    0.967 
 4749  234.348    3.638    3.220   34.836   27.693    0.324    0.967 
 4750  234.521    3.638    3.220   34.836   27.693    0.324    0.967 
 4752  234.695    3.639    3.220   34.835   27.692    0.324    0.967 
 4754  234.868    3.641    3.220   34.835   27.692    0.324    0.964 
 4755  235.042    3.641    3.220   34.835   27.692    0.278    0.964 
 4757  235.215    3.641    3.220   34.835   27.692    0.301    0.964 
 4758  235.389    3.641    3.220   34.835   27.692    0.301    0.964 
 4760  235.562    3.642    3.220   34.835   27.692    0.301    0.964 
 4761  235.736    3.642    3.220   34.835   27.692    0.301    0.964 
 4762  235.909    3.642    3.220   34.835   27.692    0.301    0.964 
 4764  236.083    3.642    3.220   34.835   27.692    0.301    0.964 
 4766  236.256    3.642    3.220   34.835   27.692    0.301    0.964 
 4767  236.430    3.643    3.220   34.835   27.692    0.301    0.964 
 4768  236.603    3.643    3.221   34.839   27.694    0.301    0.964 
 4770  236.777    3.643    3.221   34.839   27.694    0.324    0.964 
 4771  236.950    3.643    3.221   34.839   27.694    0.324    0.964 
 4773  237.124    3.643    3.221   34.839   27.694    0.324    0.967 
 4774  237.297    3.644    3.221   34.839   27.694    0.301    0.967 
 4775  237.471    3.644    3.221   34.839   27.694    0.324    0.967 
 4778  237.644    3.644    3.221   34.839   27.694    0.324    0.967 
 4780  237.817    3.644    3.221   34.839   27.694    0.324    0.967 
 4782  237.991    3.644    3.221   34.839   27.694    0.324    0.967 
 4785  238.164    3.645    3.221   34.839   27.694    0.324    0.967 
 4787  238.338    3.645    3.221   34.839   27.694    0.324    0.964 
 4791  238.511    3.645    3.221   34.839   27.694    0.324    0.964 
 4793  238.685    3.645    3.221   34.838   27.694    0.324    0.960 
 4797  238.858    3.645    3.221   34.838   27.694    0.348    0.960 
 4800  239.032    3.645    3.221   34.838   27.694    0.348    0.960 
 4801  239.205    3.645    3.221   34.838   27.694    0.348    0.964 
 4804  239.379    3.645    3.221   34.838   27.694    0.301    0.964 
 4805  239.552    3.645    3.221   34.838   27.694    0.301    0.964 
 4806  239.726    3.645    3.221   34.838   27.694    0.301    0.964 
 4808  239.899    3.645    3.221   34.838   27.694    0.301    0.964 
 4810  240.246    3.645    3.221   34.838   27.693    0.324    0.967 
 4812  240.420    3.645    3.221   34.838   27.693    0.324    0.967 
 4813  240.593    3.645    3.221   34.837   27.693    0.301    0.967 
 4814  240.767    3.645    3.221   34.837   27.693    0.301    0.967 
 4815  240.940    3.645    3.221   34.837   27.693    0.324    0.967 
 4816  241.113    3.645    3.221   34.837   27.693    0.324    0.967 
 4817  241.287    3.645    3.221   34.837   27.693    0.324    0.967 
 4818  241.460    3.645    3.221   34.837   27.693    0.324    0.967 
 4819  241.634    3.645    3.221   34.837   27.693    0.324    0.964 
 4820  241.807    3.645    3.221   34.837   27.693    0.324    0.964 
 4822  242.154    3.645    3.221   34.837   27.693    0.324    0.964 
 4824  242.328    3.645    3.221   34.836   27.693    0.324    0.964 
 4825  242.501    3.645    3.221   34.836   27.693    0.348    0.964 
 4826  242.675    3.645    3.221   34.836   27.692    0.324    0.964 
 4828  243.022    3.645    3.221   34.836   27.692    0.324    0.964 
 4830  243.195    3.646    3.221   34.835   27.691    0.348    0.964 
 4832  243.369    3.646    3.221   34.835   27.691    0.348    0.964 
 4833  243.542    3.646    3.221   34.835   27.691    0.348    0.964 
 4836  243.716    3.646    3.221   34.835   27.691    0.348    0.964 
 4839  243.889    3.646    3.221   34.835   27.691    0.324    0.964 
 4843  244.063    3.646    3.221   34.835   27.691    0.348    0.964 
 4845  244.236    3.646    3.221   34.835   27.691    0.371    0.964 
 4847  244.409    3.646    3.221   34.835   27.691    0.348    0.960 
 4851  244.583    3.646    3.221   34.835   27.691    0.348    0.960 
 4853  244.756    3.646    3.221   34.835   27.691    0.348    0.960 
 4855  244.930    3.646    3.221   34.835   27.691    0.324    0.960 
 4858  245.103    3.646    3.221   34.835   27.691    0.324    0.960 
 4859  245.277    3.646    3.221   34.835   27.691    0.324    0.960 
 4860  245.450    3.646    3.221   34.835   27.691    0.348    0.960 
 4862  245.624    3.647    3.221   34.835   27.691    0.348    0.960 
 4863  245.797    3.647    3.222   34.842   27.697    0.348    0.960 
 4864  245.971    3.647    3.222   34.842   27.697    0.324    0.960 
 4866  246.144    3.648    3.222   34.842   27.697    0.301    0.960 
 4867  246.318    3.648    3.222   34.842   27.697    0.301    0.960 
 4868  246.491    3.648    3.222   34.842   27.697    0.324    0.960 
 4869  246.665    3.648    3.222   34.842   27.697    0.301    0.960 
 4871  246.838    3.648    3.222   34.842   27.697    0.301    0.960 
 4872  247.012    3.648    3.222   34.842   27.697    0.324    0.960 
 4873  247.185    3.648    3.222   34.842   27.697    0.324    0.960 
 4874  247.358    3.648    3.222   34.842   27.697    0.301    0.960 
 4876  247.532    3.648    3.222   34.842   27.697    0.301    0.960 
 4877  247.705    3.648    3.222   34.842   27.697    0.301    0.960 
 4878  247.879    3.648    3.222   34.842   27.697    0.301    0.960 
 4880  248.052    3.649    3.222   34.842   27.696    0.301    0.960 
 4881  248.226    3.649    3.222   34.842   27.696    0.301    0.960 
 4883  248.399    3.649    3.222   34.842   27.696    0.301    0.960 
 4885  248.573    3.648    3.222   34.841   27.696    0.301    0.960 
 4887  248.746    3.649    3.222   34.841   27.696    0.301    0.960 
 4890  248.920    3.648    3.222   34.841   27.696    0.301    0.960 
 4893  249.093    3.648    3.222   34.841   27.696    0.324    0.957 
 4897  249.267    3.648    3.222   34.841   27.696    0.324    0.957 
 4900  249.440    3.648    3.222   34.841   27.696    0.324    0.957 
 4903  249.614    3.649    3.222   34.840   27.695    0.301    0.957 
 4905  249.787    3.649    3.222   34.840   27.695    0.301    0.957 
 4907  249.960    3.649    3.222   34.840   27.695    0.324    0.957 
 4909  250.134    3.649    3.222   34.840   27.695    0.324    0.957 
 4911  250.307    3.649    3.222   34.840   27.695    0.324    0.957 
 4912  250.481    3.649    3.222   34.840   27.695    0.324    0.957 
 4913  250.654    3.649    3.222   34.840   27.695    0.324    0.957 
 4915  250.828    3.649    3.222   34.840   27.695    0.324    0.960 
 4916  251.175    3.649    3.222   34.839   27.694    0.324    0.960 
 4918  251.522    3.649    3.222   34.839   27.694    0.324    0.960 
 4920  251.695    3.649    3.222   34.839   27.694    0.324    0.960 
 4921  251.869    3.649    3.222   34.839   27.694    0.324    0.960 
 4922  252.042    3.649    3.222   34.839   27.694    0.348    0.960 
 4923  252.216    3.649    3.222   34.839   27.694    0.324    0.960 
 4924  252.389    3.649    3.222   34.839   27.694    0.324    0.960 
 4925  252.562    3.649    3.222   34.839   27.694    0.324    0.960 
 4927  252.909    3.649    3.222   34.838   27.694    0.324    0.960 
 4928  253.083    3.649    3.222   34.838   27.694    0.324    0.960 
 4929  253.256    3.649    3.222   34.838   27.694    0.324    0.960 
 4930  253.430    3.649    3.222   34.838   27.693    0.324    0.960 
 4932  253.603    3.649    3.222   34.838   27.693    0.324    0.960 
 4933  253.777    3.649    3.222   34.838   27.693    0.324    0.960 
 4934  253.950    3.649    3.222   34.838   27.693    0.324    0.960 
 4936  254.297    3.649    3.222   34.838   27.693    0.324    0.960 
 4939  254.471    3.649    3.222   34.838   27.693    0.324    0.957 
 4941  254.644    3.649    3.222   34.837   27.693    0.324    0.957 
 4945  254.818    3.649    3.222   34.837   27.693    0.324    0.957 
 4949  254.991    3.649    3.222   34.837   27.693    0.324    0.957 
 4953  255.164    3.649    3.222   34.837   27.693    0.324    0.957 
 4957  255.338    3.649    3.222   34.837   27.693    0.324    0.957 
 4958  255.511    3.649    3.222   34.837   27.693    0.324    0.957 
 4961  255.685    3.649    3.222   34.837   27.693    0.324    0.957 
 4963  255.858    3.649    3.222   34.837   27.693    0.324    0.957 
 4964  256.032    3.650    3.222   34.837   27.693    0.324    0.957 
 4965  256.205    3.650    3.222   34.837   27.693    0.324    0.957 
 4967  256.379    3.650    3.222   34.837   27.693    0.324    0.957 
 4968  256.552    3.650    3.222   34.837   27.693    0.324    0.957 
 4969  256.726    3.650    3.222   34.837   27.693    0.348    0.957 
 4970  256.899    3.650    3.222   34.837   27.693    0.348    0.957 
 4972  257.246    3.650    3.222   34.837   27.693    0.348    0.957 
 4974  257.419    3.651    3.223   34.845   27.699    0.348    0.957 
 4975  257.593    3.651    3.223   34.845   27.699    0.348    0.957 
 4976  257.766    3.651    3.223   34.845   27.699    0.348    0.957 
 4978  257.940    3.651    3.223   34.845   27.699    0.324    0.957 
 4979  258.113    3.651    3.223   34.845   27.699    0.324    0.957 
 4980  258.287    3.651    3.223   34.845   27.699    0.324    0.957 
 4981  258.460    3.651    3.223   34.845   27.699    0.324    0.957 
 4983  258.634    3.651    3.223   34.845   27.699    0.324    0.957 
 4985  258.807    3.651    3.223   34.845   27.699    0.324    0.957 
 4986  258.981    3.651    3.223   34.845   27.699    0.324    0.957 
 4988  259.154    3.651    3.223   34.845   27.699    0.324    0.957 
 4989  259.328    3.651    3.223   34.845   27.699    0.324    0.953 
 4992  259.501    3.651    3.223   34.845   27.698    0.324    0.953 
 4993  259.674    3.651    3.223   34.845   27.698    0.324    0.953 
 4996  259.848    3.651    3.223   34.845   27.698    0.301    0.953 
 4999  260.021    3.651    3.223   34.844   27.698    0.301    0.953 
 5000  260.195    3.651    3.223   34.844   27.698    0.301    0.953 
 5002  260.368    3.651    3.223   34.844   27.698    0.301    0.953 
 5005  260.542    3.651    3.223   34.844   27.698    0.301    0.953 
 5006  260.715    3.651    3.223   34.844   27.698    0.301    0.953 
 5008  260.889    3.651    3.223   34.844   27.698    0.324    0.953 
 5010  261.062    3.651    3.223   34.844   27.698    0.301    0.953 
 5012  261.236    3.651    3.223   34.844   27.698    0.301    0.953 
 5013  261.409    3.651    3.223   34.844   27.698    0.301    0.953 
 5015  261.582    3.651    3.223   34.844   27.698    0.301    0.953 
 5017  261.756    3.651    3.223   34.843   27.698    0.301    0.953 
 5018  261.929    3.651    3.223   34.843   27.698    0.301    0.953 
 5021  262.103    3.651    3.223   34.843   27.697    0.301    0.953 
 5022  262.276    3.651    3.223   34.843   27.697    0.278    0.953 
 5023  262.450    3.651    3.223   34.843   27.697    0.278    0.950 
 5025  262.623    3.651    3.223   34.843   27.697    0.278    0.950 
 5026  262.797    3.651    3.223   34.843   27.697    0.278    0.950 
 5028  262.970    3.652    3.223   34.842   27.696    0.301    0.950 
 5029  263.144    3.652    3.223   34.842   27.696    0.301    0.950 
 5030  263.317    3.652    3.223   34.842   27.696    0.278    0.950 
 5032  263.491    3.652    3.223   34.841   27.696    0.301    0.950 
 5034  263.664    3.652    3.223   34.841   27.696    0.278    0.950 
 5035  263.837    3.652    3.223   34.841   27.696    0.278    0.950 
 5036  264.011    3.652    3.223   34.841   27.696    0.301    0.950 
 5038  264.184    3.652    3.223   34.841   27.696    0.324    0.950 
 5039  264.358    3.652    3.223   34.841   27.695    0.324    0.950 
 5040  264.531    3.652    3.223   34.841   27.695    0.324    0.950 
 5041  264.705    3.652    3.223   34.841   27.695    0.324    0.950 
 5043  264.878    3.652    3.223   34.841   27.695    0.324    0.950 
 5044  265.052    3.652    3.223   34.841   27.695    0.348    0.950 
 5046  265.225    3.652    3.223   34.841   27.695    0.348    0.950 
 5047  265.399    3.652    3.223   34.840   27.695    0.348    0.950 
 5048  265.572    3.653    3.223   34.839   27.694    0.348    0.950 
 5049  265.745    3.653    3.223   34.839   27.694    0.348    0.950 
 5050  265.919    3.653    3.223   34.839   27.694    0.348    0.950 
 5053  266.092    3.653    3.223   34.839   27.694    0.348    0.950 
 5054  266.266    3.653    3.223   34.839   27.694    0.348    0.950 
 5056  266.439    3.653    3.223   34.839   27.694    0.348    0.950 
 5058  266.613    3.653    3.223   34.839   27.693    0.348    0.950 
 5059  266.786    3.653    3.223   34.839   27.693    0.324    0.950 
 5061  266.960    3.653    3.223   34.839   27.693    0.324    0.950 
 5063  267.133    3.653    3.223   34.839   27.693    0.324    0.950 
 5067  267.307    3.653    3.223   34.839   27.693    0.324    0.953 
 5069  267.480    3.653    3.223   34.839   27.693    0.301    0.953 
 5073  267.653    3.653    3.223   34.839   27.693    0.301    0.953 
 5075  267.827    3.653    3.223   34.839   27.693    0.301    0.953 
 5078  268.000    3.653    3.223   34.839   27.693    0.301    0.953 
 5080  268.174    3.653    3.223   34.839   27.693    0.301    0.953 
 5082  268.347    3.653    3.223   34.839   27.693    0.301    0.953 
 5084  268.521    3.653    3.223   34.839   27.693    0.301    0.953 
 5085  268.694    3.654    3.223   34.839   27.693    0.324    0.953 
 5086  268.868    3.654    3.224   34.844   27.698    0.324    0.953 
 5087  269.041    3.654    3.224   34.844   27.698    0.324    0.953 
 5088  269.214    3.655    3.224   34.844   27.698    0.301    0.953 
 5090  269.388    3.655    3.224   34.844   27.698    0.301    0.953 
 5091  269.561    3.656    3.224   34.844   27.698    0.301    0.950 
 5092  269.735    3.656    3.224   34.844   27.698    0.324    0.950 
 5093  269.908    3.656    3.224   34.844   27.698    0.301    0.950 
 5094  270.082    3.656    3.224   34.844   27.698    0.324    0.950 
 5095  270.255    3.656    3.224   34.844   27.698    0.324    0.950 
 5096  270.429    3.656    3.224   34.844   27.698    0.301    0.950 
 5097  270.602    3.657    3.224   34.844   27.698    0.278    0.950 
 5098  270.776    3.657    3.224   34.844   27.698    0.301    0.950 
 5099  270.949    3.657    3.224   34.844   27.697    0.324    0.950 
 5101  271.122    3.657    3.224   34.844   27.697    0.301    0.946 
 5102  271.296    3.657    3.224   34.844   27.697    0.301    0.946 
 5103  271.469    3.657    3.224   34.844   27.697    0.324    0.946 
 5104  271.643    3.657    3.224   34.844   27.697    0.324    0.946 
 5106  271.816    3.657    3.224   34.844   27.697    0.324    0.946 
 5108  271.990    3.657    3.224   34.843   27.697    0.324    0.946 
 5110  272.163    3.657    3.224   34.843   27.697    0.324    0.946 
 5113  272.337    3.658    3.224   34.842   27.696    0.348    0.946 
 5120  272.510    3.658    3.224   34.842   27.696    0.348    0.943 
 5125  272.684    3.658    3.224   34.842   27.696    0.301    0.946 
 5128  272.857    3.658    3.224   34.842   27.696    0.348    0.946 
 5130  273.030    3.658    3.224   34.842   27.696    0.348    0.950 
 5131  273.204    3.658    3.224   34.842   27.696    0.348    0.950 
 5133  273.377    3.658    3.224   34.842   27.696    0.348    0.957 
 5134  273.551    3.658    3.224   34.842   27.696    0.348    0.957 
 5136  273.898    3.659    3.224   34.842   27.696    0.348    0.957 
 5138  274.071    3.659    3.224   34.842   27.696    0.348    0.957 
 5139  274.245    3.660    3.224   34.842   27.696    0.348    0.957 
 5140  274.418    3.660    3.224   34.842   27.696    0.324    0.957 
 5141  274.591    3.660    3.225   34.850   27.702    0.324    0.957 
 5142  274.765    3.660    3.225   34.850   27.702    0.324    0.953 
 5143  275.112    3.660    3.225   34.850   27.702    0.324    0.950 
 5145  275.459    3.660    3.225   34.850   27.702    0.324    0.950 
 5146  275.632    3.660    3.225   34.850   27.702    0.348    0.943 
 5148  275.806    3.660    3.225   34.850   27.702    0.324    0.943 
 5149  276.152    3.660    3.225   34.850   27.702    0.324    0.943 
 5151  276.326    3.660    3.225   34.850   27.702    0.324    0.943 
 5152  276.499    3.660    3.225   34.850   27.702    0.301    0.943 
 5153  276.673    3.660    3.225   34.850   27.702    0.301    0.943 
 5154  276.846    3.660    3.225   34.850   27.702    0.301    0.943 
 5155  277.193    3.660    3.225   34.849   27.701    0.301    0.943 
 5157  277.367    3.660    3.225   34.849   27.701    0.324    0.943 
 5159  277.540    3.660    3.225   34.849   27.701    0.301    0.943 
 5161  277.713    3.660    3.225   34.849   27.701    0.301    0.943 
 5162  277.887    3.660    3.225   34.849   27.701    0.301    0.943 
 5165  278.060    3.660    3.225   34.849   27.701    0.301    0.943 
 5167  278.234    3.660    3.225   34.849   27.701    0.301    0.943 
 5169  278.407    3.661    3.225   34.848   27.700    0.301    0.943 
 5177  278.581    3.661    3.225   34.848   27.700    0.301    0.946 
 5183  278.754    3.661    3.225   34.848   27.700    0.301    0.946 
 5187  278.928    3.661    3.225   34.847   27.700    0.301    0.943 
 5190  279.101    3.661    3.225   34.847   27.700    0.301    0.943 
 5191  279.275    3.661    3.225   34.847   27.700    0.301    0.943 
 5193  279.448    3.661    3.225   34.847   27.699    0.301    0.943 
 5195  279.621    3.661    3.225   34.847   27.699    0.301    0.943 
 5197  279.795    3.661    3.225   34.847   27.699    0.301    0.943 
 5198  279.968    3.661    3.225   34.847   27.699    0.301    0.943 
 5199  280.142    3.661    3.225   34.847   27.699    0.301    0.943 
 5200  280.315    3.661    3.225   34.847   27.699    0.301    0.943 
 5201  280.489    3.661    3.225   34.847   27.699    0.301    0.943 
 5203  280.662    3.663    3.225   34.847   27.699    0.301    0.943 
 5204  280.836    3.664    3.225   34.847   27.699    0.301    0.943 
 5205  281.009    3.664    3.225   34.847   27.699    0.301    0.943 
 5206  281.182    3.664    3.225   34.847   27.699    0.301    0.943 
 5207  281.356    3.664    3.225   34.847   27.699    0.278    0.943 
 5208  281.529    3.664    3.225   34.847   27.699    0.278    0.943 
 5209  281.703    3.665    3.225   34.847   27.699    0.301    0.943 
 5210  282.050    3.665    3.225   34.847   27.699    0.301    0.943 
 5212  282.223    3.666    3.226   34.851   27.702    0.301    0.943 
 5213  282.396    3.666    3.226   34.851   27.702    0.301    0.943 
 5214  282.570    3.666    3.226   34.851   27.702    0.301    0.943 
 5216  282.743    3.666    3.226   34.851   27.702    0.301    0.943 
 5217  282.917    3.666    3.226   34.851   27.702    0.301    0.943 
 5218  283.090    3.666    3.226   34.851   27.702    0.301    0.943 
 5220  283.264    3.666    3.226   34.851   27.702    0.301    0.943 
 5221  283.437    3.666    3.226   34.851   27.702    0.301    0.943 
 5223  283.611    3.666    3.226   34.851   27.702    0.324    0.943 
 5225  283.784    3.666    3.226   34.851   27.702    0.301    0.943 
 5227  283.957    3.666    3.226   34.851   27.702    0.324    0.943 
 5229  284.131    3.666    3.226   34.851   27.702    0.348    0.943 
 5230  284.304    3.666    3.226   34.851   27.702    0.348    0.943 
 5232  284.478    3.666    3.226   34.851   27.702    0.301    0.943 
 5234  284.651    3.666    3.226   34.851   27.702    0.324    0.943 
 5235  284.825    3.667    3.226   34.850   27.701    0.301    0.943 
 5237  284.998    3.667    3.226   34.850   27.701    0.278    0.943 
 5238  285.172    3.667    3.226   34.850   27.701    0.278    0.943 
 5239  285.345    3.667    3.226   34.850   27.701    0.255    0.943 
 5241  285.518    3.667    3.226   34.850   27.701    0.278    0.943 
 5243  285.692    3.667    3.226   34.850   27.701    0.278    0.943 
 5244  285.865    3.667    3.226   34.850   27.701    0.278    0.943 
 5245  286.039    3.667    3.226   34.850   27.701    0.278    0.943 
 5247  286.386    3.667    3.226   34.850   27.701    0.278    0.943 
 5250  286.559    3.666    3.226   34.849   27.701    0.278    0.943 
 5252  286.732    3.666    3.226   34.849   27.701    0.301    0.943 
 5253  286.906    3.666    3.226   34.849   27.701    0.301    0.943 
 5256  287.079    3.666    3.226   34.849   27.701    0.301    0.943 
 5257  287.253    3.666    3.226   34.849   27.701    0.301    0.939 
 5259  287.426    3.666    3.226   34.849   27.700    0.324    0.939 
 5263  287.600    3.667    3.226   34.848   27.700    0.301    0.939 
 5264  287.773    3.667    3.226   34.848   27.700    0.301    0.939 
 5267  287.947    3.667    3.226   34.848   27.700    0.301    0.939 
 5269  288.120    3.668    3.226   34.847   27.699    0.301    0.939 
 5271  288.293    3.668    3.226   34.847   27.698    0.301    0.939 
 5273  288.467    3.668    3.226   34.847   27.698    0.324    0.939 
 5274  288.640    3.668    3.226   34.847   27.698    0.324    0.939 
 5276  288.814    3.668    3.226   34.847   27.698    0.324    0.939 
 5277  288.987    3.668    3.226   34.846   27.698    0.324    0.939 
 5278  289.161    3.668    3.226   34.846   27.698    0.301    0.939 
 5279  289.334    3.668    3.226   34.846   27.698    0.301    0.939 
 5280  289.508    3.668    3.226   34.846   27.698    0.301    0.939 
 5281  289.681    3.668    3.226   34.846   27.698    0.324    0.939 
 5283  290.028    3.668    3.226   34.846   27.698    0.324    0.939 
 5284  290.201    3.668    3.226   34.846   27.698    0.324    0.939 
 5286  290.375    3.668    3.226   34.846   27.698    0.324    0.939 
 5287  290.548    3.668    3.226   34.846   27.698    0.324    0.939 
 5288  290.722    3.668    3.226   34.846   27.698    0.324    0.939 
 5289  290.895    3.668    3.226   34.845   27.697    0.324    0.939 
 5290  291.068    3.668    3.226   34.845   27.697    0.348    0.939 
 5292  291.242    3.668    3.226   34.845   27.697    0.324    0.939 
 5293  291.415    3.668    3.226   34.845   27.697    0.324    0.939 
 5295  291.589    3.668    3.226   34.845   27.697    0.324    0.939 
 5297  291.762    3.668    3.226   34.845   27.697    0.324    0.939 
 5299  291.936    3.668    3.226   34.845   27.697    0.301    0.939 
 5315  292.109    3.668    3.226   34.845   27.697    0.278    0.936 
 5317  292.282    3.668    3.226   34.845   27.697    0.278    0.936 
 5319  292.456    3.668    3.226   34.845   27.697    0.278    0.936 
 5321  292.629    3.668    3.226   34.845   27.697    0.278    0.936 
 5322  292.803    3.668    3.226   34.844   27.697    0.278    0.939 
 5323  292.976    3.668    3.226   34.844   27.697    0.278    0.939 
 5324  293.150    3.668    3.226   34.844   27.696    0.278    0.939 
 5325  293.323    3.668    3.226   34.844   27.696    0.278    0.939 
 5326  293.497    3.668    3.226   34.844   27.696    0.278    0.939 
 5327  293.670    3.668    3.226   34.844   27.696    0.278    0.939 
 5328  293.843    3.668    3.226   34.844   27.696    0.278    0.943 
 5329  294.017    3.668    3.226   34.844   27.696    0.278    0.943 
 5330  294.364    3.668    3.226   34.844   27.696    0.278    0.943 
 5331  294.537    3.668    3.226   34.844   27.696    0.301    0.943 
 5332  294.884    3.668    3.226   34.844   27.696    0.301    0.943 
 5333  295.057    3.669    3.226   34.844   27.696    0.301    0.943 
 5334  295.404    3.669    3.226   34.844   27.696    0.324    0.939 
 5335  295.578    3.670    3.227   34.851   27.701    0.324    0.939 
 5336  295.751    3.671    3.227   34.851   27.701    0.324    0.936 
 5337  296.098    3.671    3.227   34.851   27.701    0.324    0.936 
 5338  296.271    3.671    3.227   34.851   27.701    0.324    0.932 
 5339  296.445    3.671    3.227   34.851   27.701    0.324    0.932 
 5340  296.792    3.671    3.227   34.851   27.701    0.324    0.932 
 5341  296.965    3.671    3.227   34.851   27.701    0.324    0.932 
 5342  297.139    3.671    3.227   34.851   27.701    0.324    0.932 
 5343  297.312    3.671    3.227   34.851   27.701    0.324    0.932 
 5344  297.485    3.671    3.227   34.851   27.701    0.324    0.932 
 5345  297.659    3.671    3.227   34.851   27.701    0.324    0.932 
 5346  297.832    3.671    3.227   34.850   27.701    0.324    0.932 
 5348  298.006    3.671    3.227   34.850   27.701    0.324    0.932 
 5374  298.179    3.671    3.227   34.850   27.701    0.324    0.932 
 5376  298.353    3.671    3.227   34.850   27.701    0.301    0.932 
 5377  298.526    3.671    3.227   34.850   27.701    0.301    0.932 
 5378  298.699    3.671    3.227   34.850   27.701    0.301    0.932 
 5379  298.873    3.671    3.227   34.850   27.701    0.324    0.932 
 5380  299.046    3.671    3.227   34.850   27.701    0.324    0.932 
 5381  299.393    3.671    3.227   34.850   27.700    0.324    0.932 
 5382  299.567    3.671    3.227   34.850   27.700    0.301    0.936 
 5383  299.740    3.671    3.227   34.849   27.700    0.324    0.936 
 5384  299.913    3.671    3.227   34.849   27.700    0.324    0.936 
 5385  300.260    3.671    3.227   34.849   27.700    0.324    0.936 
 5387  300.607    3.671    3.227   34.849   27.700    0.324    0.936 
 5388  300.781    3.671    3.227   34.849   27.700    0.301    0.936 
 5389  300.954    3.671    3.227   34.849   27.700    0.324    0.936 
 5390  301.301    3.671    3.227   34.849   27.700    0.301    0.936 
 5391  301.474    3.671    3.227   34.848   27.699    0.301    0.936 
 5392  301.648    3.671    3.227   34.848   27.699    0.301    0.936 
 5394  301.995    3.671    3.227   34.848   27.699    0.324    0.936 
 5396  302.168    3.671    3.227   34.848   27.699    0.324    0.936 
 5398  302.515    3.671    3.227   34.848   27.699    0.348    0.936 
 5400  302.688    3.671    3.227   34.848   27.699    0.324    0.936 
 5401  302.862    3.671    3.227   34.848   27.699    0.324    0.936 
 5406  303.035    3.671    3.227   34.848   27.699    0.324    0.936 
 5413  303.209    3.671    3.227   34.848   27.699    0.324    0.936 
 5419  303.382    3.672    3.227   34.846   27.698    0.301    0.936 
 5421  303.555    3.672    3.227   34.846   27.698    0.301    0.936 
 5423  303.729    3.672    3.227   34.846   27.698    0.324    0.936 
 5426  303.902    3.672    3.227   34.846   27.698    0.324    0.936 
 5427  304.076    3.672    3.227   34.846   27.697    0.324    0.939 
 5428  304.249    3.672    3.227   34.846   27.697    0.324    0.939 
 5429  304.423    3.672    3.227   34.846   27.697    0.324    0.939 
 5431  304.596    3.672    3.227   34.846   27.697    0.324    0.939 
 5432  304.769    3.672    3.227   34.846   27.697    0.324    0.939 
 5433  304.943    3.672    3.227   34.846   27.697    0.324    0.939 
 5435  305.290    3.672    3.227   34.845   27.697    0.324    0.939 
 5436  305.463    3.672    3.227   34.845   27.697    0.324    0.939 
 5437  305.637    3.672    3.227   34.845   27.697    0.324    0.939 
 5438  305.810    3.672    3.227   34.845   27.697    0.324    0.936 
 5439  305.983    3.672    3.227   34.845   27.697    0.324    0.936 
 5440  306.157    3.672    3.227   34.845   27.697    0.324    0.936 
 5441  306.330    3.672    3.227   34.845   27.697    0.324    0.936 
 5442  306.504    3.672    3.227   34.845   27.697    0.324    0.936 
 5443  306.677    3.672    3.227   34.845   27.697    0.324    0.936 
 5444  307.024    3.672    3.227   34.845   27.697    0.324    0.936 
 5445  307.197    3.672    3.227   34.845   27.697    0.324    0.932 
 5446  307.371    3.672    3.227   34.845   27.697    0.324    0.932 
 5447  307.544    3.672    3.227   34.845   27.697    0.301    0.932 
 5448  307.718    3.672    3.227   34.845   27.697    0.301    0.932 
 5449  307.891    3.672    3.227   34.845   27.697    0.301    0.932 
 5450  308.064    3.672    3.228   34.854   27.704    0.301    0.932 
 5451  308.238    3.672    3.228   34.854   27.704    0.301    0.932 
 5452  308.411    3.672    3.228   34.854   27.704    0.301    0.932 
 5453  308.585    3.672    3.228   34.854   27.704    0.324    0.932 
 5455  308.758    3.672    3.228   34.854   27.704    0.301    0.929 
 5456  308.932    3.672    3.228   34.854   27.704    0.324    0.929 
 5457  309.105    3.672    3.228   34.854   27.704    0.301    0.929 
 5459  309.278    3.672    3.228   34.854   27.704    0.324    0.929 
 5460  309.452    3.673    3.228   34.854   27.704    0.324    0.929 
 5461  309.625    3.673    3.228   34.854   27.704    0.324    0.929 
 5463  309.799    3.673    3.228   34.854   27.704    0.301    0.929 
 5465  309.972    3.673    3.228   34.854   27.703    0.301    0.929 
 5468  310.146    3.673    3.228   34.854   27.703    0.301    0.929 
 5470  310.319    3.673    3.228   34.854   27.703    0.324    0.929 
 5473  310.492    3.673    3.228   34.853   27.703    0.301    0.925 
 5476  310.666    3.673    3.228   34.853   27.703    0.301    0.925 
 5482  310.839    3.673    3.228   34.853   27.703    0.301    0.925 
 5489  311.013    3.673    3.228   34.853   27.703    0.348    0.925 
 5493  311.186    3.673    3.228   34.853   27.703    0.324    0.925 
 5497  311.359    3.673    3.228   34.853   27.703    0.324    0.925 
 5499  311.533    3.674    3.228   34.852   27.702    0.324    0.925 
 5502  311.706    3.674    3.228   34.852   27.702    0.324    0.929 
 5503  311.880    3.674    3.228   34.852   27.702    0.324    0.929 
 5504  312.053    3.674    3.228   34.852   27.702    0.324    0.929 
 5506  312.227    3.674    3.228   34.851   27.702    0.278    0.929 
 5507  312.400    3.674    3.228   34.851   27.702    0.278    0.929 
 5508  312.573    3.674    3.228   34.851   27.701    0.278    0.929 
 5510  312.920    3.674    3.228   34.851   27.701    0.278    0.929 
 5511  313.094    3.674    3.228   34.851   27.701    0.278    0.929 
 5512  313.267    3.674    3.228   34.851   27.701    0.278    0.929 
 5513  313.441    3.674    3.228   34.851   27.701    0.278    0.929 
 5514  313.614    3.674    3.228   34.851   27.701    0.278    0.929 
 5515  313.787    3.674    3.228   34.851   27.701    0.278    0.929 
 5516  313.961    3.674    3.228   34.850   27.701    0.278    0.929 
 5517  314.308    3.674    3.228   34.850   27.701    0.278    0.929 
 5518  314.481    3.674    3.228   34.850   27.701    0.278    0.925 
 5519  314.654    3.674    3.228   34.850   27.701    0.278    0.925 
 5520  315.001    3.674    3.228   34.850   27.700    0.278    0.925 
 5521  315.175    3.674    3.228   34.850   27.700    0.278    0.925 
 5522  315.348    3.674    3.228   34.850   27.700    0.301    0.925 
 5523  315.522    3.674    3.228   34.850   27.700    0.324    0.925 
 5524  315.695    3.674    3.228   34.850   27.700    0.324    0.925 
 5525  315.868    3.675    3.228   34.848   27.699    0.324    0.925 
 5526  316.215    3.675    3.228   34.848   27.699    0.324    0.925 
 5527  316.389    3.675    3.228   34.848   27.699    0.348    0.925 
 5528  316.562    3.675    3.228   34.848   27.699    0.324    0.925 
 5529  316.735    3.675    3.228   34.848   27.699    0.348    0.925 
 5530  316.909    3.675    3.228   34.848   27.699    0.324    0.925 
 5531  317.082    3.675    3.228   34.848   27.698    0.324    0.925 
 5532  317.256    3.675    3.228   34.848   27.698    0.324    0.925 
 5533  317.429    3.675    3.228   34.848   27.698    0.301    0.925 
 5534  317.603    3.675    3.228   34.847   27.698    0.301    0.925 
 5537  317.776    3.675    3.228   34.847   27.698    0.301    0.925 
 5539  317.949    3.675    3.228   34.847   27.698    0.301    0.925 
 5555  318.123    3.675    3.228   34.847   27.698    0.324    0.922 
 5559  318.296    3.675    3.228   34.847   27.698    0.324    0.922 
 5560  318.470    3.675    3.228   34.847   27.698    0.301    0.922 
 5562  318.643    3.675    3.228   34.847   27.698    0.301    0.925 
 5563  318.816    3.676    3.228   34.847   27.698    0.301    0.925 
 5564  318.990    3.676    3.228   34.847   27.698    0.301    0.925 
 5566  319.163    3.676    3.228   34.847   27.698    0.301    0.925 
 5567  319.337    3.676    3.228   34.847   27.698    0.324    0.925 
 5568  319.510    3.676    3.228   34.847   27.698    0.324    0.925 
 5569  319.683    3.676    3.228   34.847   27.698    0.324    0.925 
 5570  319.857    3.676    3.229   34.855   27.704    0.324    0.925 
 5571  320.204    3.676    3.229   34.855   27.704    0.324    0.925 
 5572  320.377    3.676    3.229   34.855   27.704    0.324    0.925 
 5573  320.551    3.676    3.229   34.855   27.704    0.348    0.925 
 5574  320.724    3.676    3.229   34.855   27.704    0.348    0.925 
 5575  320.897    3.676    3.229   34.855   27.704    0.348    0.925 
 5576  321.244    3.676    3.229   34.855   27.704    0.348    0.925 
 5578  321.418    3.676    3.229   34.855   27.704    0.348    0.925 
 5579  321.764    3.676    3.229   34.855   27.704    0.348    0.925 
 5580  321.938    3.677    3.229   34.855   27.704    0.348    0.925 
 5582  322.111    3.677    3.229   34.855   27.704    0.348    0.925 
 5583  322.458    3.677    3.229   34.855   27.704    0.348    0.925 
 5585  322.631    3.677    3.229   34.855   27.704    0.348    0.925 
 5587  322.805    3.677    3.229   34.854   27.704    0.348    0.925 
 5589  322.978    3.677    3.229   34.854   27.704    0.348    0.925 
 5592  323.152    3.677    3.229   34.854   27.703    0.348    0.929 
 5596  323.325    3.677    3.229   34.854   27.703    0.348    0.929 
 5606  323.499    3.677    3.229   34.854   27.703    0.324    0.925 
 5610  323.672    3.677    3.229   34.854   27.703    0.301    0.925 
 5611  323.845    3.677    3.229   34.854   27.703    0.324    0.925 
 5613  324.019    3.677    3.229   34.854   27.703    0.301    0.925 
 5615  324.192    3.677    3.229   34.854   27.703    0.301    0.925 
 5616  324.366    3.677    3.229   34.854   27.703    0.301    0.925 
 5618  324.539    3.677    3.229   34.854   27.703    0.301    0.925 
 5619  324.712    3.677    3.229   34.853   27.703    0.301    0.925 
 5620  325.059    3.677    3.229   34.853   27.703    0.301    0.925 
 5622  325.233    3.677    3.229   34.853   27.703    0.301    0.925 
 5623  325.406    3.678    3.229   34.852   27.702    0.301    0.925 
 5624  325.579    3.678    3.229   34.852   27.702    0.301    0.925 
 5625  325.753    3.678    3.229   34.852   27.701    0.301    0.925 
 5626  325.926    3.678    3.229   34.852   27.701    0.324    0.925 
 5627  326.100    3.678    3.229   34.852   27.701    0.301    0.929 
 5628  326.273    3.678    3.229   34.852   27.701    0.301    0.929 
 5629  326.447    3.678    3.229   34.851   27.701    0.301    0.929 
 5630  326.620    3.678    3.229   34.851   27.701    0.301    0.925 
 5631  326.793    3.678    3.229   34.851   27.701    0.324    0.925 
 5633  327.140    3.678    3.229   34.851   27.701    0.324    0.925 
 5635  327.314    3.678    3.229   34.851   27.701    0.324    0.922 
 5636  327.487    3.678    3.229   34.851   27.701    0.324    0.922 
 5637  327.660    3.678    3.229   34.851   27.701    0.324    0.922 
 5638  327.834    3.678    3.229   34.851   27.701    0.324    0.922 
 5640  328.007    3.678    3.229   34.851   27.700    0.324    0.922 
 5641  328.181    3.678    3.229   34.850   27.700    0.301    0.922 
 5644  328.527    3.678    3.229   34.850   27.700    0.324    0.922 
 5647  328.701    3.678    3.229   34.850   27.700    0.301    0.922 
 5648  328.874    3.678    3.229   34.850   27.700    0.301    0.919 
 5649  329.048    3.678    3.229   34.850   27.700    0.324    0.919 
 5652  329.221    3.678    3.229   34.850   27.700    0.301    0.919 
 5654  329.394    3.678    3.229   34.850   27.700    0.301    0.919 
 5655  329.568    3.678    3.229   34.850   27.700    0.301    0.919 
 5658  329.741    3.678    3.229   34.850   27.700    0.301    0.919 
 5660  329.915    3.678    3.229   34.850   27.700    0.324    0.919 
 5664  330.088    3.678    3.229   34.849   27.700    0.324    0.919 
 5665  330.261    3.678    3.229   34.849   27.699    0.301    0.919 
 5668  330.435    3.678    3.229   34.849   27.699    0.301    0.919 
 5670  330.608    3.679    3.229   34.848   27.698    0.301    0.919 
 5673  330.782    3.679    3.229   34.848   27.698    0.301    0.919 
 5674  330.955    3.679    3.229   34.848   27.698    0.301    0.919 
 5676  331.128    3.679    3.229   34.848   27.698    0.301    0.919 
 5678  331.302    3.679    3.229   34.848   27.698    0.301    0.919 
 5680  331.475    3.679    3.229   34.848   27.698    0.301    0.919 
 5682  331.649    3.679    3.229   34.848   27.698    0.301    0.919 
 5684  331.822    3.679    3.229   34.848   27.698    0.301    0.919 
 5687  331.996    3.679    3.229   34.848   27.698    0.301    0.915 
 5688  332.169    3.679    3.229   34.848   27.698    0.301    0.915 
 5690  332.342    3.679    3.229   34.848   27.698    0.301    0.915 
 5692  332.516    3.679    3.229   34.848   27.698    0.301    0.915 
 5693  332.689    3.679    3.229   34.848   27.698    0.301    0.915 
 5694  332.863    3.679    3.229   34.848   27.698    0.301    0.915 
 5696  333.036    3.679    3.229   34.848   27.698    0.301    0.919 
 5697  333.209    3.679    3.230   34.857   27.705    0.301    0.919 
 5698  333.383    3.679    3.230   34.857   27.705    0.301    0.919 
 5699  333.556    3.679    3.230   34.857   27.705    0.301    0.919 
 5701  333.730    3.680    3.230   34.857   27.705    0.301    0.919 
 5702  333.903    3.680    3.230   34.857   27.705    0.324    0.919 
 5703  334.076    3.680    3.230   34.857   27.705    0.324    0.919 
 5704  334.250    3.680    3.230   34.857   27.705    0.324    0.919 
 5705  334.423    3.680    3.230   34.857   27.705    0.324    0.919 
 5706  334.597    3.680    3.230   34.857   27.705    0.324    0.919 
 5708  334.770    3.680    3.230   34.857   27.705    0.324    0.919 
 5709  334.943    3.680    3.230   34.857   27.705    0.301    0.919 
 5710  335.117    3.680    3.230   34.857   27.705    0.301    0.919 
 5711  335.290    3.680    3.230   34.856   27.705    0.301    0.919 
 5712  335.464    3.680    3.230   34.856   27.705    0.278    0.915 
 5714  335.637    3.680    3.230   34.856   27.705    0.278    0.915 
 5715  335.810    3.680    3.230   34.856   27.705    0.278    0.915 
 5716  335.984    3.680    3.230   34.856   27.705    0.278    0.915 
 5717  336.157    3.680    3.230   34.856   27.705    0.278    0.915 
 5719  336.331    3.680    3.230   34.856   27.705    0.278    0.915 
 5722  336.504    3.680    3.230   34.856   27.704    0.278    0.912 
 5724  336.677    3.680    3.230   34.856   27.704    0.278    0.912 
 5727  336.851    3.681    3.230   34.855   27.703    0.278    0.912 
 5729  337.024    3.681    3.230   34.854   27.703    0.301    0.912 
 5731  337.198    3.681    3.230   34.854   27.703    0.324    0.912 
 5735  337.371    3.681    3.230   34.854   27.703    0.324    0.912 
 5737  337.544    3.681    3.230   34.854   27.703    0.324    0.912 
 5739  337.718    3.681    3.230   34.854   27.703    0.324    0.915 
 5742  337.891    3.681    3.230   34.854   27.703    0.324    0.915 
 5744  338.065    3.681    3.230   34.854   27.703    0.324    0.915 
 5745  338.238    3.681    3.230   34.854   27.703    0.324    0.915 
 5747  338.411    3.681    3.230   34.854   27.703    0.324    0.915 
 5748  338.585    3.681    3.230   34.854   27.703    0.324    0.915 
 5751  338.758    3.681    3.230   34.854   27.703    0.301    0.915 
 5752  338.932    3.681    3.230   34.853   27.703    0.278    0.915 
 5753  339.105    3.681    3.230   34.853   27.702    0.301    0.915 
 5754  339.278    3.681    3.230   34.853   27.702    0.301    0.915 
 5757  339.452    3.681    3.230   34.853   27.702    0.301    0.915 
 5759  339.625    3.681    3.230   34.853   27.702    0.301    0.915 
 5760  339.799    3.681    3.230   34.853   27.702    0.301    0.915 
 5762  339.972    3.681    3.230   34.853   27.702    0.301    0.915 
 5763  340.145    3.681    3.230   34.853   27.702    0.301    0.915 
 5766  340.319    3.681    3.230   34.853   27.702    0.301    0.919 
 5767  340.492    3.681    3.230   34.853   27.702    0.301    0.919 
 5768  340.666    3.681    3.230   34.853   27.702    0.301    0.919 
 5770  340.839    3.681    3.230   34.852   27.702    0.301    0.919 
 5772  341.012    3.681    3.230   34.852   27.702    0.301    0.919 
 5774  341.186    3.681    3.230   34.852   27.702    0.301    0.919 
 5775  341.359    3.681    3.230   34.852   27.701    0.301    0.919 
 5777  341.533    3.681    3.230   34.852   27.701    0.301    0.919 
 5779  341.879    3.681    3.230   34.852   27.701    0.301    0.919 
 5781  342.053    3.681    3.230   34.852   27.701    0.301    0.919 
 5782  342.226    3.681    3.230   34.852   27.701    0.301    0.919 
 5783  342.400    3.681    3.230   34.852   27.701    0.301    0.915 
 5784  342.573    3.681    3.230   34.851   27.701    0.301    0.915 
 5785  342.746    3.681    3.230   34.851   27.701    0.301    0.915 
 5787  342.920    3.681    3.230   34.851   27.701    0.301    0.912 
 5788  343.093    3.681    3.230   34.851   27.701    0.301    0.912 
 5789  343.267    3.682    3.230   34.850   27.700    0.301    0.912 
 5791  343.440    3.682    3.230   34.850   27.700    0.301    0.912 
 5792  343.787    3.682    3.230   34.850   27.699    0.301    0.912 
 5795  343.960    3.682    3.230   34.850   27.699    0.301    0.912 
 5796  344.133    3.682    3.230   34.850   27.699    0.301    0.912 
 5798  344.307    3.682    3.230   34.850   27.699    0.301    0.912 
 5800  344.480    3.682    3.230   34.850   27.699    0.301    0.912 
 5801  344.654    3.682    3.230   34.850   27.699    0.301    0.912 
 5803  344.827    3.682    3.230   34.850   27.699    0.301    0.912 
 5805  345.000    3.682    3.230   34.850   27.699    0.348    0.912 
 5807  345.174    3.682    3.230   34.850   27.699    0.348    0.912 
 5810  345.347    3.682    3.230   34.850   27.699    0.348    0.912 
 5812  345.521    3.682    3.230   34.850   27.699    0.348    0.912 
 5814  345.694    3.682    3.230   34.850   27.699    0.301    0.912 
 5817  345.867    3.682    3.231   34.859   27.706    0.301    0.912 
 5818  346.041    3.682    3.231   34.859   27.706    0.301    0.912 
 5821  346.214    3.682    3.231   34.859   27.706    0.301    0.912 
 5823  346.388    3.682    3.231   34.859   27.706    0.301    0.912 
 5826  346.561    3.682    3.231   34.859   27.706    0.301    0.912 
 5829  346.734    3.682    3.231   34.859   27.706    0.301    0.915 
 5830  346.908    3.682    3.231   34.859   27.706    0.301    0.915 
 5832  347.081    3.682    3.231   34.859   27.706    0.301    0.915 
 5834  347.255    3.682    3.231   34.859   27.706    0.301    0.915 
 5835  347.428    3.682    3.231   34.859   27.706    0.301    0.915 
 5837  347.601    3.683    3.231   34.859   27.706    0.301    0.915 
 5838  347.775    3.683    3.231   34.859   27.706    0.301    0.915 
 5839  347.948    3.683    3.231   34.858   27.706    0.301    0.915 
 5841  348.122    3.683    3.231   34.858   27.706    0.301    0.915 
 5842  348.295    3.683    3.231   34.858   27.706    0.301    0.915 
 5844  348.468    3.683    3.231   34.858   27.706    0.301    0.915 
 5845  348.642    3.683    3.231   34.858   27.706    0.301    0.912 
 5846  348.815    3.683    3.231   34.858   27.706    0.301    0.912 
 5848  348.988    3.683    3.231   34.858   27.706    0.301    0.908 
 5849  349.162    3.683    3.231   34.858   27.706    0.301    0.908 
 5850  349.335    3.683    3.231   34.858   27.706    0.301    0.908 
 5851  349.509    3.683    3.231   34.858   27.706    0.301    0.908 
 5853  349.682    3.683    3.231   34.857   27.705    0.301    0.908 
 5854  349.855    3.683    3.231   34.857   27.705    0.301    0.908 
 5855  350.029    3.683    3.231   34.857   27.705    0.301    0.908 
 5856  350.202    3.683    3.231   34.857   27.705    0.301    0.908 
 5858  350.376    3.683    3.231   34.857   27.705    0.301    0.908 
 5860  350.549    3.683    3.231   34.857   27.705    0.301    0.908 
 5861  350.722    3.683    3.231   34.857   27.705    0.301    0.912 
 5863  350.896    3.683    3.231   34.857   27.705    0.301    0.912 
 5865  351.069    3.683    3.231   34.857   27.705    0.301    0.912 
 5866  351.243    3.683    3.231   34.857   27.705    0.301    0.912 
 5868  351.416    3.683    3.231   34.857   27.705    0.301    0.912 
 5871  351.589    3.683    3.231   34.856   27.705    0.348    0.912 
 5873  351.763    3.683    3.231   34.856   27.705    0.348    0.912 
 5875  351.936    3.683    3.231   34.856   27.704    0.348    0.912 
 5877  352.110    3.683    3.231   34.856   27.704    0.348    0.912 
 5880  352.283    3.683    3.231   34.856   27.704    0.301    0.912 
 5881  352.456    3.683    3.231   34.856   27.704    0.301    0.912 
 5883  352.630    3.683    3.231   34.856   27.704    0.324    0.912 
 5885  352.803    3.683    3.231   34.856   27.704    0.301    0.912 
 5887  352.976    3.683    3.231   34.856   27.704    0.324    0.912 
 5889  353.150    3.683    3.231   34.856   27.704    0.301    0.912 
 5890  353.323    3.683    3.231   34.856   27.704    0.301    0.912 
 5892  353.497    3.683    3.231   34.856   27.704    0.324    0.912 
 5893  353.670    3.683    3.231   34.856   27.704    0.301    0.912 
 5894  353.843    3.683    3.231   34.856   27.704    0.301    0.912 
 5895  354.017    3.683    3.231   34.855   27.704    0.301    0.912 
 5897  354.190    3.683    3.231   34.855   27.704    0.301    0.915 
 5898  354.364    3.683    3.231   34.855   27.704    0.301    0.915 
 5900  354.710    3.682    3.231   34.855   27.704    0.301    0.915 
 5902  354.884    3.682    3.231   34.855   27.704    0.301    0.912 
 5904  355.230    3.682    3.231   34.855   27.704    0.278    0.912 
 5906  355.404    3.682    3.231   34.855   27.704    0.278    0.912 
 5908  355.577    3.682    3.231   34.855   27.704    0.278    0.912 
 5910  355.751    3.682    3.231   34.855   27.704    0.278    0.912 
 5912  355.924    3.682    3.231   34.855   27.704    0.278    0.912 
 5914  356.097    3.682    3.231   34.855   27.704    0.301    0.912 
 5917  356.271    3.682    3.231   34.855   27.704    0.278    0.912 
 5922  356.444    3.682    3.231   34.855   27.703    0.278    0.908 
 5926  356.618    3.682    3.231   34.855   27.703    0.301    0.912 
 5932  356.791    3.682    3.231   34.855   27.703    0.301    0.912 
 5934  356.964    3.682    3.231   34.855   27.703    0.301    0.912 
 5936  357.138    3.682    3.231   34.855   27.703    0.301    0.912 
 5938  357.311    3.682    3.231   34.854   27.703    0.301    0.912 
 5939  357.484    3.682    3.231   34.854   27.703    0.301    0.912 
 5940  357.658    3.682    3.231   34.854   27.703    0.301    0.912 
 5942  357.831    3.682    3.231   34.854   27.703    0.301    0.915 
 5943  358.005    3.682    3.231   34.854   27.703    0.301    0.915 
 5944  358.178    3.682    3.231   34.854   27.703    0.301    0.915 
 5945  358.351    3.682    3.231   34.854   27.703    0.301    0.915 
 5946  358.525    3.682    3.231   34.854   27.703    0.301    0.915 
 5947  358.698    3.682    3.231   34.854   27.703    0.301    0.915 
 5948  358.872    3.682    3.231   34.854   27.703    0.301    0.915 
 5949  359.045    3.682    3.231   34.853   27.702    0.301    0.915 
 5950  359.218    3.683    3.231   34.852   27.701    0.301    0.915 
 5951  359.392    3.683    3.231   34.852   27.701    0.301    0.915 
 5952  359.738    3.683    3.231   34.852   27.701    0.301    0.912 
 5953  359.912    3.683    3.231   34.852   27.701    0.301    0.912 
 5955  360.085    3.683    3.231   34.852   27.701    0.301    0.912 
 5956  360.432    3.683    3.231   34.852   27.701    0.301    0.912 
 5957  360.779    3.683    3.231   34.851   27.701    0.301    0.908 
 5959  360.952    3.683    3.231   34.851   27.701    0.301    0.905 
 5960  361.126    3.683    3.231   34.851   27.701    0.324    0.905 
 5962  361.299    3.683    3.231   34.851   27.700    0.301    0.905 
 5963  361.472    3.683    3.231   34.851   27.700    0.324    0.902 
 5964  361.646    3.683    3.231   34.851   27.700    0.324    0.902 
 5965  361.819    3.683    3.231   34.851   27.700    0.301    0.902 
 5967  361.992    3.683    3.231   34.851   27.700    0.278    0.902 
 5968  362.166    3.683    3.231   34.851   27.700    0.324    0.902 
 5970  362.339    3.683    3.231   34.851   27.700    0.324    0.902 
 5971  362.513    3.683    3.231   34.851   27.700    0.324    0.902 
 5973  362.686    3.683    3.231   34.851   27.700    0.324    0.902 
 5975  362.859    3.683    3.231   34.851   27.700    0.301    0.902 
 5977  363.033    3.683    3.231   34.851   27.700    0.301    0.905 
 5979  363.206    3.683    3.232   34.861   27.708    0.301    0.905 
 5981  363.379    3.683    3.232   34.861   27.708    0.278    0.912 
 5982  363.553    3.683    3.232   34.861   27.708    0.301    0.915 
 5985  363.726    3.683    3.232   34.861   27.708    0.301    0.915 
 5987  363.900    3.683    3.232   34.861   27.708    0.324    0.915 
 5988  364.073    3.683    3.232   34.861   27.708    0.324    0.915 
 5992  364.246    3.683    3.232   34.861   27.708    0.301    0.915 
 5993  364.420    3.683    3.232   34.861   27.708    0.324    0.912 
 5996  364.593    3.683    3.232   34.861   27.708    0.324    0.908 
 6003  364.767    3.683    3.232   34.861   27.708    0.324    0.908 
 6014  364.940    3.683    3.232   34.861   27.708    0.301    0.902 
 6018  365.113    3.683    3.232   34.861   27.708    0.278    0.902 
 6020  365.287    3.683    3.232   34.861   27.708    0.278    0.902 
 6021  365.460    3.683    3.232   34.861   27.708    0.278    0.902 
 6023  365.633    3.683    3.232   34.861   27.708    0.278    0.915 
 6024  365.807    3.683    3.232   34.861   27.708    0.278    0.919 
 6026  365.980    3.683    3.232   34.861   27.708    0.278    0.922 
 6027  366.154    3.683    3.232   34.861   27.708    0.278    0.922 
 6028  366.327    3.683    3.232   34.860   27.708    0.301    0.925 
 6029  366.500    3.683    3.232   34.860   27.708    0.301    0.929 
 6030  366.847    3.683    3.232   34.860   27.708    0.301    0.929 
 6031  367.020    3.683    3.232   34.860   27.708    0.301    0.932 
 6032  367.367    3.683    3.232   34.860   27.707    0.301    0.932 
 6034  367.714    3.683    3.232   34.860   27.707    0.278    0.943 
 6035  367.887    3.683    3.232   34.860   27.707    0.278    0.946 
 6036  368.234    3.683    3.232   34.859   27.707    0.278    0.950 
 6038  368.581    3.683    3.232   34.859   27.707    0.278    0.950 
 6039  368.754    3.683    3.232   34.859   27.707    0.278    0.950 
 6040  368.928    3.683    3.232   34.859   27.707    0.278    0.953 
 6041  369.101    3.683    3.232   34.859   27.707    0.278    0.957 
 6042  369.274    3.683    3.232   34.859   27.707    0.301    0.957 
 6043  369.621    3.683    3.232   34.859   27.706    0.301    0.957 
 6044  369.794    3.683    3.232   34.859   27.706    0.301    0.957 
 6046  369.968    3.683    3.232   34.858   27.706    0.278    0.960 
 6047  370.141    3.683    3.232   34.858   27.706    0.278    0.960 
 6048  370.315    3.683    3.232   34.858   27.706    0.255    0.964 
 6049  370.488    3.683    3.232   34.858   27.706    0.255    0.964 
 6050  370.661    3.683    3.232   34.858   27.706    0.255    0.964 
 6052  370.835    3.683    3.232   34.858   27.706    0.255    0.964 
 6055  371.008    3.683    3.232   34.858   27.706    0.301    0.964 
 6058  371.181    3.683    3.232   34.858   27.706    0.324    0.964 
 6063  371.355    3.683    3.232   34.858   27.706    0.301    0.964 
 6079  372.222    3.683    3.232   34.857   27.705    0.255    0.967 
 6081  372.395    3.683    3.232   34.857   27.704    0.255    0.967 
 6082  372.568    3.683    3.232   34.857   27.704    0.255    0.967 
 6084  372.742    3.683    3.232   34.857   27.704    0.255    0.960 
 6085  373.089    3.683    3.232   34.856   27.704    0.278    0.953 
 6086  373.262    3.683    3.232   34.855   27.703    0.278    0.953 
 6088  373.435    3.683    3.232   34.855   27.703    0.301    0.946 
 6089  373.609    3.683    3.232   34.855   27.703    0.301    0.946 
 6090  373.782    3.683    3.232   34.855   27.703    0.301    0.946 
 6091  373.955    3.684    3.232   34.855   27.703    0.301    0.943 
 6092  374.129    3.684    3.232   34.855   27.703    0.301    0.943 
 6093  374.302    3.684    3.232   34.855   27.703    0.301    0.943 
 6095  374.476    3.684    3.232   34.855   27.703    0.301    0.943 
 6096  374.649    3.684    3.232   34.855   27.703    0.301    0.943 
 6097  374.996    3.684    3.232   34.855   27.703    0.301    0.943 
 6100  375.169    3.684    3.232   34.855   27.703    0.301    0.943 
 6101  375.342    3.684    3.232   34.855   27.703    0.301    0.943 
 6103  375.516    3.684    3.232   34.854   27.703    0.301    0.943 
 6105  375.689    3.684    3.232   34.854   27.703    0.301    0.946 
 6109  375.863    3.684    3.232   34.854   27.703    0.301    0.953 
 6112  376.209    3.684    3.232   34.854   27.703    0.301    0.953 
 6117  376.383    3.684    3.232   34.854   27.703    0.301    0.953 
 6119  376.556    3.684    3.232   34.854   27.703    0.301    0.953 
 6122  376.729    3.684    3.232   34.854   27.702    0.301    0.953 
 6125  376.903    3.684    3.232   34.854   27.702    0.301    0.953 
 6126  377.076    3.684    3.232   34.854   27.702    0.301    0.953 
 6128  377.249    3.684    3.232   34.854   27.702    0.301    0.953 
 6130  377.423    3.684    3.232   34.853   27.702    0.301    0.953 
 6132  377.596    3.684    3.232   34.853   27.702    0.301    0.957 
 6134  377.770    3.684    3.232   34.853   27.702    0.301    0.960 
 6135  377.943    3.684    3.232   34.853   27.702    0.301    0.964 
 6137  378.116    3.684    3.232   34.853   27.702    0.301    0.964 
 6138  378.290    3.684    3.232   34.853   27.702    0.278    0.971 
 6140  378.463    3.684    3.232   34.853   27.702    0.278    0.975 
 6142  378.636    3.684    3.232   34.853   27.702    0.278    0.975 
 6143  378.810    3.684    3.232   34.853   27.702    0.278    0.971 
 6145  378.983    3.684    3.232   34.853   27.702    0.278    0.975 
 6147  379.157    3.684    3.232   34.853   27.702    0.278    0.975 
 6148  379.330    3.684    3.232   34.853   27.702    0.278    0.975 
 6150  379.503    3.684    3.232   34.853   27.702    0.278    0.978 
 6151  379.677    3.684    3.232   34.853   27.702    0.278    0.978 
 6153  379.850    3.684    3.232   34.853   27.702    0.278    0.978 
 6155  380.023    3.684    3.232   34.853   27.702    0.278    0.975 
 6156  380.197    3.684    3.233   34.863   27.710    0.278    0.975 
 6158  380.370    3.684    3.233   34.863   27.710    0.278    0.971 
 6159  380.543    3.684    3.233   34.863   27.710    0.278    0.964 
 6161  380.717    3.684    3.233   34.863   27.710    0.301    0.957 
 6162  380.890    3.684    3.233   34.863   27.710    0.301    0.957 
 6163  381.064    3.684    3.233   34.863   27.710    0.301    0.953 
 6166  381.237    3.684    3.233   34.863   27.710    0.301    0.950 
 6167  381.410    3.684    3.233   34.863   27.710    0.301    0.950 
 6168  381.584    3.684    3.233   34.863   27.710    0.301    0.953 
 6170  381.757    3.684    3.233   34.863   27.710    0.278    0.957 
 6171  381.930    3.684    3.233   34.863   27.710    0.278    0.957 
 6172  382.104    3.684    3.233   34.863   27.710    0.278    0.957 
 6185  384.184    3.684    3.233   34.862   27.709    0.301    0.975 
 6186  384.358    3.684    3.233   34.862   27.709    0.301    0.975 
 6187  384.531    3.684    3.233   34.862   27.709    0.278    0.975 
 6188  384.704    3.683    3.233   34.862   27.709    0.278    0.975 
 6189  384.878    3.683    3.233   34.862   27.709    0.278    0.975 
 6190  385.051    3.683    3.233   34.862   27.709    0.301    0.975 
 6191  385.224    3.683    3.233   34.862   27.709    0.301    0.971 
 6192  385.398    3.683    3.233   34.862   27.709    0.301    0.957 
 6193  385.571    3.683    3.233   34.862   27.709    0.301    0.953 
 6194  385.744    3.683    3.233   34.862   27.709    0.301    0.943 
 6195  385.918    3.683    3.233   34.862   27.709    0.278    0.939 
 6196  386.091    3.683    3.233   34.862   27.709    0.278    0.939 
 6198  386.265    3.683    3.233   34.862   27.709    0.278    0.939 
 6200  386.438    3.683    3.233   34.862   27.709    0.278    0.939 
 6201  386.611    3.683    3.233   34.861   27.709    0.278    0.939 
 6204  386.785    3.683    3.233   34.861   27.709    0.278    0.939 
 6221  386.958    3.684    3.233   34.861   27.709    0.348    0.939 
 6225  387.131    3.683    3.233   34.861   27.708    0.348    0.939 
 6227  387.305    3.683    3.233   34.861   27.708    0.348    0.950 
 6228  387.478    3.683    3.233   34.861   27.708    0.348    0.957 
 6229  387.651    3.683    3.233   34.861   27.708    0.324    0.971 
 6230  387.825    3.683    3.233   34.861   27.708    0.324    0.971 
 6232  387.998    3.683    3.233   34.861   27.708    0.301    0.975 
 6233  388.172    3.683    3.233   34.861   27.708    0.301    0.978 
 6234  388.345    3.683    3.233   34.861   27.708    0.301    0.978 
 6235  388.518    3.682    3.233   34.861   27.708    0.301    0.978 
 6236  388.692    3.682    3.233   34.861   27.708    0.301    0.978 
 6237  388.865    3.682    3.233   34.861   27.708    0.301    0.985 
 6238  389.212    3.682    3.233   34.861   27.708    0.278    1.000 
 6239  389.385    3.682    3.233   34.861   27.708    0.301    1.000 
 6240  389.558    3.682    3.233   34.861   27.708    0.301    1.000 
 6241  389.732    3.682    3.233   34.861   27.708    0.278    1.000 
 6242  389.905    3.682    3.233   34.861   27.708    0.278    1.000 
 6243  390.078    3.682    3.233   34.861   27.708    0.278    1.000 
 6244  390.252    3.682    3.233   34.861   27.708    0.278    0.996 
 6245  390.425    3.682    3.233   34.860   27.708    0.278    0.993 
 6247  390.772    3.682    3.233   34.860   27.708    0.278    0.985 
 6249  390.945    3.682    3.233   34.860   27.708    0.278    0.978 
 6252  391.119    3.683    3.233   34.859   27.707    0.278    0.975 
 6253  391.292    3.683    3.233   34.859   27.707    0.278    0.975 
 6268  391.465    3.683    3.233   34.859   27.707    0.301    0.957 
 6273  391.639    3.683    3.233   34.859   27.707    0.324    0.946 
 6276  391.812    3.683    3.233   34.859   27.707    0.324    0.946 
 6277  391.985    3.683    3.233   34.859   27.707    0.324    0.943 
 6279  392.159    3.683    3.233   34.859   27.706    0.324    0.939 
 6281  392.332    3.683    3.233   34.859   27.706    0.301    0.939 
 6282  392.505    3.683    3.233   34.859   27.706    0.301    0.939 
 6283  392.679    3.683    3.233   34.859   27.706    0.301    0.939 
 6284  393.026    3.683    3.233   34.858   27.706    0.301    0.939 
 6286  393.199    3.683    3.233   34.858   27.706    0.278    0.939 
 6287  393.372    3.682    3.233   34.858   27.706    0.278    0.939 
 6288  393.546    3.682    3.233   34.858   27.706    0.278    0.939 
 6289  393.719    3.682    3.233   34.858   27.706    0.278    0.939 
 6290  394.066    3.682    3.233   34.858   27.706    0.278    0.939 
 6292  394.412    3.682    3.233   34.858   27.706    0.255    0.936 
 6293  394.586    3.682    3.233   34.858   27.706    0.255    0.932 
 6294  394.759    3.682    3.233   34.858   27.706    0.255    0.932 
 6295  394.932    3.682    3.233   34.858   27.706    0.255    0.932 
 6296  395.279    3.682    3.233   34.858   27.706    0.255    0.929 
 6297  395.453    3.682    3.233   34.858   27.706    0.255    0.929 
 6298  395.626    3.682    3.233   34.858   27.706    0.255    0.919 
 6299  395.973    3.682    3.233   34.858   27.706    0.255    0.902 
 6301  396.146    3.682    3.233   34.857   27.706    0.278    0.882 
 6302  396.493    3.682    3.233   34.857   27.705    0.278    0.882 
 6303  396.666    3.682    3.233   34.857   27.705    0.301    0.882 
 6304  396.839    3.682    3.233   34.857   27.705    0.278    0.882 
 6305  397.013    3.682    3.233   34.857   27.705    0.301    0.882 
 6306  397.186    3.682    3.233   34.857   27.705    0.301    0.882 
 6308  397.359    3.682    3.233   34.857   27.705    0.301    0.882 
 6309  397.533    3.682    3.233   34.857   27.705    0.301    0.882 
 6311  397.706    3.682    3.233   34.857   27.705    0.301    0.905 
 6313  397.880    3.682    3.233   34.856   27.705    0.301    0.943 
 6317  398.053    3.682    3.233   34.856   27.705    0.324    0.953 
 6319  398.226    3.682    3.233   34.856   27.705    0.301    0.953 
 6326  398.400    3.682    3.233   34.856   27.705    0.301    0.953 
 6329  398.573    3.682    3.233   34.856   27.704    0.278    0.950 
 6331  398.746    3.682    3.233   34.856   27.704    0.278    0.950 
 6333  398.920    3.682    3.233   34.856   27.704    0.278    0.950 
 6335  399.093    3.682    3.233   34.856   27.704    0.278    0.946 
 6336  399.266    3.682    3.233   34.856   27.704    0.278    0.943 
 6339  399.613    3.682    3.233   34.856   27.704    0.278    0.943 
 6340  399.786    3.682    3.233   34.855   27.704    0.278    0.943 
 6342  399.960    3.682    3.233   34.855   27.704    0.278    0.939 
 6343  400.133    3.682    3.233   34.855   27.704    0.278    0.939 
 6345  400.306    3.682    3.233   34.855   27.704    0.278    0.939 
 6346  400.480    3.682    3.233   34.855   27.704    0.278    0.939 
 6347  400.653    3.682    3.233   34.855   27.704    0.278    0.939 
 6348  400.827    3.682    3.233   34.855   27.703    0.278    0.939 
 6350  401.000    3.682    3.233   34.855   27.703    0.278    0.939 
 6351  401.173    3.682    3.233   34.855   27.703    0.278    0.939 
 6353  401.347    3.682    3.233   34.855   27.703    0.278    0.943 
 6355  401.520    3.682    3.233   34.855   27.703    0.278    0.993 
 6357  401.693    3.682    3.233   34.855   27.703    0.278    0.996 
 6363  401.867    3.682    3.233   34.855   27.703    0.278    0.996 
 6369  402.040    3.682    3.233   34.855   27.703    0.301    0.982 
 6373  402.213    3.682    3.233   34.855   27.703    0.278    0.971 
 6376  402.387    3.682    3.233   34.855   27.703    0.301    0.964 
 6377  402.560    3.682    3.233   34.855   27.703    0.301    0.964 
 6379  402.733    3.681    3.233   34.855   27.703    0.324    0.964 
 6380  402.907    3.681    3.233   34.855   27.703    0.324    0.964 
 6382  403.080    3.681    3.233   34.855   27.703    0.324    0.960 
 6383  403.253    3.681    3.233   34.855   27.703    0.324    0.960 
 6384  403.427    3.681    3.233   34.855   27.703    0.324    0.960 
 6385  403.600    3.681    3.233   34.855   27.703    0.324    0.957 
 6386  403.773    3.681    3.233   34.855   27.704    0.324    0.957 
 6387  403.947    3.681    3.233   34.855   27.704    0.324    0.957 
 6388  404.120    3.681    3.234   34.865   27.712    0.324    0.957 
 6389  404.294    3.681    3.234   34.865   27.712    0.324    0.957 
 6390  404.467    3.681    3.234   34.865   27.712    0.324    0.953 
 6391  404.640    3.681    3.234   34.865   27.712    0.324    0.953 
 6392  404.987    3.681    3.234   34.865   27.712    0.324    0.953 
 6393  405.160    3.681    3.234   34.865   27.712    0.324    0.953 
 6394  405.507    3.681    3.234   34.865   27.712    0.324    0.950 
 6396  405.680    3.681    3.234   34.865   27.712    0.324    0.950 
 6397  405.854    3.681    3.234   34.865   27.712    0.324    0.950 
 6398  406.027    3.681    3.234   34.865   27.712    0.324    0.946 
 6399  406.200    3.681    3.234   34.865   27.712    0.301    0.946 
 6400  406.374    3.681    3.234   34.865   27.712    0.301    0.946 
 6401  406.547    3.681    3.234   34.865   27.712    0.278    0.943 
 6402  406.720    3.681    3.234   34.865   27.711    0.278    0.943 
 6403  406.894    3.681    3.234   34.865   27.711    0.278    0.943 
 6405  407.067    3.681    3.234   34.865   27.711    0.278    0.943 
 6406  407.240    3.681    3.234   34.864   27.711    0.278    0.943 
 6408  407.414    3.681    3.234   34.864   27.711    0.278    0.946 
 6410  407.587    3.681    3.234   34.864   27.711    0.255    0.946 
 6413  407.760    3.681    3.234   34.864   27.711    0.278    0.946 
 6419  407.934    3.681    3.234   34.864   27.711    0.324    0.943 
 6422  408.107    3.681    3.234   34.864   27.711    0.324    0.939 
 6425  408.281    3.681    3.234   34.864   27.711    0.324    0.939 
 6430  408.454    3.681    3.234   34.864   27.711    0.348    0.936 
 6431  408.627    3.681    3.234   34.864   27.711    0.348    0.932 
 6434  408.801    3.681    3.234   34.864   27.711    0.324    0.932 
 6435  408.974    3.681    3.234   34.864   27.710    0.324    0.932 
 6436  409.147    3.681    3.234   34.863   27.710    0.324    0.932 
 6438  409.321    3.681    3.234   34.863   27.710    0.324    0.932 
 6439  409.494    3.681    3.234   34.863   27.710    0.301    0.932 
 6441  409.667    3.681    3.234   34.863   27.710    0.301    0.936 
 6442  409.841    3.681    3.234   34.863   27.710    0.301    0.936 
 6443  410.014    3.681    3.234   34.863   27.710    0.301    0.936 
 6445  410.187    3.681    3.234   34.863   27.710    0.301    0.943 
 6446  410.534    3.681    3.234   34.863   27.710    0.301    0.946 
 6448  410.707    3.681    3.234   34.863   27.710    0.301    0.946 
 6449  410.881    3.681    3.234   34.863   27.710    0.301    0.946 
 6450  411.054    3.681    3.234   34.862   27.710    0.301    0.946 
 6451  411.227    3.681    3.234   34.862   27.710    0.301    0.946 
 6452  411.401    3.681    3.234   34.862   27.709    0.301    0.946 
 6453  411.747    3.681    3.234   34.862   27.709    0.278    0.946 
 6454  411.921    3.681    3.234   34.862   27.709    0.278    0.946 
 6455  412.094    3.681    3.234   34.862   27.709    0.278    0.946 
 6456  412.267    3.681    3.234   34.862   27.709    0.301    0.946 
 6457  412.441    3.681    3.234   34.862   27.709    0.301    0.939 
 6458  412.614    3.681    3.234   34.862   27.709    0.301    0.939 
 6459  412.961    3.681    3.234   34.861   27.709    0.301    0.939 
 6461  413.307    3.681    3.234   34.861   27.709    0.301    0.939 
 6463  413.481    3.681    3.234   34.861   27.709    0.348    0.936 
 6464  413.827    3.681    3.234   34.861   27.708    0.348    0.936 
 6466  414.001    3.681    3.234   34.861   27.708    0.348    0.932 
 6468  414.174    3.681    3.234   34.861   27.708    0.348    0.932 
 6470  414.348    3.681    3.234   34.861   27.708    0.348    0.932 
 6497  414.521    3.681    3.234   34.861   27.708    0.324    0.929 
 6499  414.694    3.681    3.234   34.860   27.708    0.324    0.929 
 6500  414.868    3.681    3.234   34.860   27.708    0.324    0.929 
 6501  415.041    3.681    3.234   34.860   27.708    0.324    0.929 
 6502  415.214    3.681    3.234   34.860   27.708    0.324    0.929 
 6503  415.388    3.681    3.234   34.860   27.708    0.324    0.929 
 6504  415.561    3.681    3.234   34.860   27.708    0.324    0.929 
 6505  415.734    3.681    3.234   34.860   27.708    0.324    0.929 
 6506  415.908    3.681    3.234   34.860   27.708    0.324    0.929 
 6507  416.081    3.681    3.234   34.860   27.708    0.324    0.929 
 6508  416.254    3.681    3.234   34.860   27.707    0.324    0.929 
 6509  416.428    3.681    3.234   34.860   27.707    0.301    0.929 
 6510  416.774    3.681    3.234   34.859   27.707    0.324    0.929 
 6511  416.948    3.681    3.234   34.859   27.707    0.324    0.929 
 6513  417.294    3.681    3.234   34.859   27.707    0.301    0.929 
 6514  417.468    3.681    3.234   34.859   27.707    0.324    0.929 
 6515  417.641    3.681    3.234   34.859   27.707    0.324    0.929 
 6517  417.988    3.681    3.234   34.859   27.707    0.324    0.929 
 6518  418.161    3.681    3.234   34.859   27.707    0.324    0.929 
 6520  418.508    3.681    3.234   34.858   27.706    0.301    0.929 
 6522  418.681    3.681    3.234   34.858   27.706    0.301    0.929 
 6524  418.854    3.681    3.234   34.858   27.706    0.324    0.929 
 6525  419.028    3.681    3.234   34.858   27.706    0.301    0.932 
 6529  419.201    3.681    3.234   34.858   27.706    0.324    0.929 
 6533  419.374    3.681    3.234   34.858   27.706    0.324    0.929 
 6537  419.548    3.681    3.234   34.858   27.706    0.324    0.925 
 6542  419.721    3.681    3.234   34.858   27.706    0.324    0.922 
 6543  419.894    3.681    3.234   34.858   27.706    0.324    0.922 
 6545  420.068    3.681    3.234   34.858   27.706    0.324    0.919 
 6546  420.241    3.681    3.234   34.857   27.706    0.324    0.919 
 6548  420.414    3.681    3.234   34.857   27.706    0.278    0.919 
 6550  420.761    3.681    3.234   34.857   27.705    0.278    0.922 
 6552  420.934    3.681    3.234   34.857   27.705    0.278    0.919 
 6553  421.108    3.681    3.234   34.857   27.705    0.278    0.919 
 6554  421.281    3.681    3.234   34.857   27.705    0.255    0.919 
 6555  421.454    3.681    3.234   34.857   27.705    0.255    0.922 
 6556  421.628    3.681    3.234   34.857   27.705    0.278    0.922 
 6557  421.801    3.681    3.234   34.857   27.705    0.278    0.922 
 6558  422.148    3.681    3.234   34.856   27.705    0.278    0.922 
 6559  422.321    3.681    3.234   34.856   27.705    0.278    0.922 
 6560  422.494    3.681    3.234   34.856   27.705    0.278    0.919 
 6561  422.668    3.681    3.234   34.856   27.705    0.278    0.922 
 6562  422.841    3.681    3.234   34.856   27.705    0.278    0.922 
 6563  423.014    3.681    3.234   34.856   27.704    0.278    0.922 
 6564  423.188    3.681    3.234   34.856   27.704    0.278    0.922 
 6565  423.534    3.681    3.234   34.856   27.704    0.278    0.919 
 6566  423.708    3.681    3.234   34.856   27.704    0.278    0.919 
 6568  424.054    3.681    3.234   34.856   27.704    0.278    0.915 
 6569  424.228    3.681    3.234   34.856   27.704    0.301    0.912 
 6571  424.401    3.681    3.234   34.856   27.704    0.324    0.908 
 6572  424.574    3.681    3.234   34.856   27.704    0.324    0.908 
 6573  424.748    3.681    3.234   34.856   27.704    0.301    0.912 
 6574  424.921    3.681    3.234   34.856   27.704    0.324    0.912 
 6576  425.094    3.681    3.234   34.856   27.704    0.324    0.908 
 6578  425.268    3.681    3.234   34.856   27.704    0.301    0.905 
 6603  425.441    3.681    3.235   34.866   27.712    0.278    0.905 
 6606  425.614    3.681    3.235   34.866   27.712    0.301    0.905 
 6608  425.788    3.681    3.235   34.866   27.712    0.301    0.905 
 6610  425.961    3.681    3.235   34.866   27.712    0.301    0.908 
 6611  426.134    3.681    3.235   34.866   27.712    0.301    0.908 
 6613  426.308    3.681    3.235   34.866   27.712    0.301    0.908 
 6614  426.481    3.681    3.235   34.866   27.712    0.301    0.912 
 6616  426.654    3.681    3.235   34.866   27.712    0.301    0.922 
 6617  426.828    3.681    3.235   34.866   27.712    0.301    0.922 
 6618  427.001    3.681    3.235   34.866   27.712    0.301    0.922 
 6619  427.174    3.681    3.235   34.866   27.712    0.301    0.925 
 6620  427.348    3.681    3.235   34.866   27.712    0.301    0.925 
 6621  427.521    3.681    3.235   34.866   27.712    0.301    0.925 
 6623  427.868    3.681    3.235   34.865   27.712    0.301    0.925 
 6624  428.041    3.681    3.235   34.865   27.712    0.301    0.925 
 6626  428.214    3.681    3.235   34.865   27.712    0.301    0.925 
 6627  428.388    3.681    3.235   34.865   27.712    0.301    0.925 
 6628  428.561    3.681    3.235   34.865   27.712    0.301    0.925 
 6629  428.908    3.681    3.235   34.865   27.712    0.301    0.929 
 6631  429.081    3.681    3.235   34.865   27.711    0.301    0.929 
 6632  429.254    3.681    3.235   34.865   27.711    0.301    0.929 
 6633  429.428    3.681    3.235   34.865   27.711    0.278    0.932 
 6635  429.601    3.681    3.235   34.865   27.711    0.278    0.932 
 6636  429.774    3.681    3.235   34.865   27.711    0.278    0.932 
 6638  429.948    3.681    3.235   34.865   27.711    0.278    0.932 
 6641  430.121    3.681    3.235   34.864   27.711    0.278    0.929 
 6642  430.294    3.681    3.235   34.864   27.711    0.278    0.929 
 6646  430.468    3.681    3.235   34.864   27.711    0.278    0.929 
 6647  430.641    3.681    3.235   34.864   27.711    0.278    0.929 
 6650  430.814    3.681    3.235   34.864   27.711    0.278    0.925 
 6653  430.988    3.680    3.235   34.864   27.711    0.278    0.925 
 6654  431.161    3.680    3.235   34.864   27.711    0.278    0.922 
 6655  431.334    3.680    3.235   34.864   27.711    0.278    0.922 
 6658  431.508    3.680    3.235   34.864   27.711    0.301    0.922 
 6659  431.681    3.680    3.235   34.864   27.711    0.301    0.922 
 6660  431.854    3.680    3.235   34.864   27.711    0.301    0.922 
 6661  432.028    3.680    3.235   34.864   27.711    0.278    0.922 
 6663  432.201    3.680    3.235   34.864   27.711    0.278    0.922 
 6664  432.374    3.680    3.235   34.864   27.711    0.255    0.922 
 6665  432.548    3.680    3.235   34.864   27.711    0.255    0.919 
 6666  432.721    3.680    3.235   34.864   27.711    0.255    0.919 
 6668  433.068    3.680    3.235   34.864   27.711    0.255    0.919 
 6669  433.241    3.680    3.235   34.864   27.711    0.255    0.915 
 6670  433.414    3.680    3.235   34.864   27.711    0.255    0.915 
 6672  433.761    3.679    3.235   34.864   27.711    0.278    0.912 
 6673  433.934    3.679    3.235   34.864   27.711    0.301    0.912 
 6674  434.108    3.679    3.235   34.864   27.711    0.301    0.912 
 6675  434.281    3.679    3.235   34.864   27.711    0.301    0.915 
 6676  434.454    3.678    3.235   34.864   27.711    0.324    0.915 
 6677  434.628    3.678    3.235   34.864   27.711    0.324    0.915 
 6678  434.801    3.678    3.235   34.864   27.711    0.301    0.915 
 6680  434.974    3.678    3.235   34.864   27.711    0.301    0.912 
 6682  435.321    3.678    3.235   34.864   27.711    0.301    0.912 
 6686  435.494    3.678    3.235   34.864   27.711    0.324    0.912 
 6687  435.667    3.678    3.235   34.864   27.711    0.324    0.912 
 6692  435.841    3.678    3.235   34.864   27.711    0.324    0.915 
 6698  436.014    3.678    3.235   34.864   27.711    0.278    0.915 
 6701  436.187    3.678    3.235   34.864   27.711    0.278    0.915 
 6702  436.361    3.678    3.235   34.864   27.711    0.278    0.915 
 6705  436.534    3.678    3.235   34.864   27.711    0.278    0.915 
 6706  436.707    3.678    3.235   34.864   27.711    0.278    0.915 
 6708  436.881    3.678    3.235   34.864   27.711    0.278    0.919 
 6710  437.054    3.678    3.235   34.864   27.711    0.278    0.919 
 6711  437.227    3.678    3.235   34.864   27.711    0.278    0.919 
 6712  437.401    3.677    3.235   34.864   27.711    0.278    0.925 
 6713  437.574    3.677    3.235   34.864   27.711    0.255    0.925 
 6715  437.747    3.677    3.235   34.864   27.711    0.278    0.925 
 6716  437.921    3.677    3.235   34.864   27.711    0.278    0.925 
 6717  438.094    3.677    3.235   34.864   27.711    0.301    0.925 
 6718  438.267    3.677    3.235   34.864   27.711    0.278    0.925 
 6720  438.441    3.677    3.235   34.864   27.711    0.301    0.925 
 6721  438.614    3.677    3.235   34.864   27.711    0.301    0.925 
 6722  438.787    3.677    3.235   34.864   27.711    0.301    0.925 
 6724  438.961    3.677    3.235   34.864   27.711    0.301    0.925 
 6725  439.134    3.677    3.235   34.864   27.711    0.301    0.925 
 6726  439.307    3.677    3.235   34.864   27.711    0.301    0.925 
 6728  439.481    3.677    3.235   34.864   27.711    0.301    0.925 
 6730  439.654    3.677    3.235   34.863   27.711    0.301    0.925 
 6732  439.827    3.677    3.235   34.863   27.711    0.301    0.925 
 6734  440.001    3.677    3.235   34.863   27.711    0.301    0.922 
 6737  440.174    3.677    3.235   34.863   27.711    0.301    0.922 
 6740  440.347    3.677    3.235   34.863   27.711    0.301    0.922 
 6743  440.521    3.677    3.235   34.863   27.711    0.301    0.922 
 6746  440.694    3.677    3.235   34.863   27.711    0.301    0.922 
 6750  440.867    3.677    3.235   34.863   27.711    0.278    0.919 
 6754  441.040    3.676    3.235   34.863   27.711    0.278    0.922 
 6758  441.214    3.676    3.235   34.863   27.711    0.278    0.922 
 6761  441.387    3.676    3.235   34.863   27.711    0.278    0.919 
 6763  441.560    3.676    3.235   34.863   27.711    0.255    0.919 
 6765  441.734    3.676    3.235   34.863   27.710    0.278    0.922 
 6766  441.907    3.676    3.235   34.863   27.710    0.278    0.922 
 6768  442.080    3.676    3.235   34.863   27.710    0.278    0.922 
 6770  442.254    3.676    3.235   34.863   27.710    0.278    0.925 
 6771  442.427    3.676    3.235   34.863   27.710    0.278    0.925 
 6772  442.600    3.676    3.235   34.863   27.710    0.278    0.925 
 6773  442.774    3.676    3.235   34.863   27.710    0.278    0.925 
 6775  443.120    3.676    3.235   34.862   27.710    0.278    0.925 
 6777  443.467    3.676    3.235   34.862   27.710    0.278    0.925 
 6778  443.640    3.676    3.235   34.862   27.710    0.278    0.925 
 6779  443.814    3.676    3.235   34.862   27.710    0.278    0.922 
 6780  443.987    3.676    3.235   34.862   27.710    0.278    0.922 
 6781  444.160    3.676    3.235   34.862   27.710    0.301    0.919 
 6782  444.334    3.676    3.235   34.862   27.710    0.301    0.919 
 6783  444.507    3.676    3.235   34.862   27.710    0.301    0.919 
 6784  444.680    3.676    3.235   34.862   27.709    0.301    0.919 
 6785  445.027    3.676    3.235   34.861   27.709    0.278    0.919 
 6786  445.200    3.676    3.235   34.861   27.709    0.278    0.919 
 6787  445.373    3.676    3.235   34.861   27.709    0.278    0.922 
 6788  445.547    3.676    3.235   34.861   27.709    0.278    0.922 
 6789  445.720    3.676    3.235   34.861   27.709    0.278    0.922 
 6790  445.893    3.676    3.235   34.861   27.709    0.278    0.919 
 6791  446.067    3.676    3.235   34.861   27.709    0.255    0.919 
 6792  446.240    3.676    3.235   34.861   27.709    0.278    0.919 
 6793  446.413    3.676    3.235   34.861   27.709    0.278    0.919 
 6795  446.760    3.676    3.235   34.861   27.709    0.255    0.919 
 6797  446.933    3.676    3.235   34.860   27.708    0.278    0.915 
 6799  447.107    3.676    3.235   34.860   27.708    0.278    0.915 
 6801  447.280    3.676    3.235   34.860   27.708    0.278    0.915 
 6804  447.453    3.676    3.235   34.860   27.708    0.278    0.915 
 6809  447.627    3.676    3.235   34.860   27.708    0.324    0.915 
 6814  447.800    3.676    3.235   34.860   27.708    0.278    0.915 
 6818  447.973    3.676    3.235   34.860   27.708    0.324    0.912 
 6820  448.147    3.676    3.235   34.860   27.708    0.324    0.912 
 6822  448.320    3.676    3.235   34.860   27.708    0.301    0.912 
 6824  448.493    3.676    3.235   34.860   27.708    0.278    0.908 
 6825  448.666    3.676    3.235   34.860   27.708    0.301    0.908 
 6827  448.840    3.676    3.235   34.860   27.708    0.301    0.908 
 6828  449.013    3.676    3.235   34.860   27.708    0.301    0.908 
 6830  449.186    3.675    3.235   34.860   27.708    0.301    0.908 
 6831  449.360    3.675    3.235   34.860   27.708    0.278    0.908 
 6832  449.533    3.675    3.235   34.860   27.708    0.278    0.912 
 6834  449.706    3.675    3.235   34.860   27.708    0.278    0.915 
 6835  449.880    3.675    3.235   34.860   27.708    0.278    0.912 
 6836  450.053    3.675    3.235   34.860   27.708    0.278    0.915 
 6838  450.226    3.675    3.235   34.860   27.708    0.278    0.915 
 6840  450.400    3.675    3.235   34.860   27.708    0.255    0.915 
 6841  450.573    3.675    3.235   34.860   27.708    0.255    0.915 
 6843  450.746    3.675    3.235   34.860   27.708    0.255    0.915 
 6844  450.920    3.675    3.235   34.860   27.708    0.255    0.915 
 6848  451.093    3.675    3.235   34.860   27.708    0.255    0.908 
 6851  451.266    3.675    3.235   34.860   27.708    0.255    0.908 
 6858  451.439    3.675    3.235   34.860   27.708    0.278    0.908 
 6863  451.613    3.675    3.235   34.859   27.708    0.278    0.908 
 6865  451.786    3.675    3.235   34.859   27.708    0.255    0.912 
 6869  451.959    3.674    3.235   34.859   27.708    0.278    0.912 
 6870  452.133    3.674    3.235   34.859   27.708    0.278    0.912 
 6872  452.306    3.674    3.235   34.859   27.708    0.278    0.912 
 6873  452.479    3.674    3.235   34.859   27.708    0.278    0.912 
 6875  452.653    3.674    3.235   34.859   27.708    0.301    0.912 
 6876  452.826    3.674    3.235   34.859   27.708    0.301    0.915 
 6877  452.999    3.674    3.235   34.859   27.708    0.301    0.915 
 6878  453.173    3.674    3.235   34.859   27.708    0.301    0.915 
 6879  453.346    3.674    3.235   34.859   27.708    0.278    0.915 
 6880  453.519    3.674    3.235   34.859   27.708    0.278    0.919 
 6881  453.693    3.674    3.235   34.859   27.708    0.278    0.922 
 6882  453.866    3.674    3.235   34.859   27.708    0.278    0.929 
 6883  454.039    3.674    3.235   34.859   27.708    0.301    0.929 
 6884  454.212    3.674    3.235   34.859   27.708    0.301    0.929 
 6885  454.386    3.674    3.235   34.859   27.708    0.301    0.929 
 6886  454.559    3.674    3.235   34.859   27.708    0.301    0.929 
 6887  454.732    3.674    3.235   34.859   27.708    0.301    0.929 
 6888  455.079    3.674    3.235   34.859   27.708    0.324    0.929 
 6890  455.252    3.674    3.235   34.859   27.708    0.324    0.929 
 6891  455.426    3.673    3.235   34.859   27.708    0.301    0.929 
 6892  455.772    3.673    3.235   34.859   27.708    0.324    0.929 
 6893  455.946    3.672    3.235   34.859   27.708    0.301    0.925 
 6895  456.119    3.672    3.235   34.859   27.708    0.301    0.912 
 6896  456.292    3.672    3.235   34.859   27.708    0.301    0.912 
 6897  456.465    3.672    3.235   34.859   27.708    0.301    0.912 
 6898  456.639    3.672    3.235   34.859   27.708    0.301    0.912 
 6899  456.812    3.672    3.235   34.859   27.708    0.301    0.912 
 6900  456.985    3.672    3.235   34.859   27.708    0.301    0.912 
 6902  457.159    3.672    3.235   34.859   27.708    0.324    0.908 
 6903  457.332    3.672    3.235   34.859   27.708    0.324    0.908 
 6905  457.505    3.672    3.235   34.859   27.708    0.324    0.898 
 6908  457.679    3.672    3.235   34.859   27.708    0.324    0.889 
 6909  457.852    3.672    3.235   34.859   27.708    0.301    0.889 
 6912  458.025    3.672    3.235   34.859   27.708    0.324    0.889 
 6914  458.199    3.671    3.235   34.859   27.708    0.348    0.889 
 6918  458.372    3.671    3.235   34.859   27.708    0.324    0.892 
 6920  458.545    3.671    3.235   34.859   27.708    0.324    0.895 
 6924  458.718    3.672    3.235   34.858   27.707    0.301    0.905 
 6925  458.892    3.672    3.235   34.858   27.707    0.301    0.905 
 6928  459.065    3.672    3.235   34.858   27.707    0.278    0.925 
 6930  459.238    3.672    3.235   34.858   27.707    0.278    0.925 
 6931  459.412    3.672    3.235   34.858   27.707    0.278    0.925 
 6933  459.585    3.672    3.235   34.858   27.707    0.278    0.925 
 6935  459.758    3.672    3.235   34.858   27.707    0.278    0.925 
 6937  459.932    3.672    3.235   34.858   27.707    0.278    0.925 
 6938  460.105    3.672    3.235   34.858   27.707    0.278    0.915 
 6939  460.278    3.672    3.235   34.858   27.707    0.278    0.915 
 6942  460.452    3.672    3.235   34.857   27.707    0.255    0.905 
 6943  460.625    3.672    3.235   34.857   27.707    0.255    0.902 
 6945  460.798    3.672    3.235   34.857   27.706    0.278    0.902 
 6946  460.971    3.672    3.235   34.857   27.706    0.255    0.902 
 6949  461.318    3.672    3.235   34.857   27.706    0.255    0.902 
 6952  461.491    3.672    3.235   34.857   27.706    0.278    0.905 
 6954  461.665    3.672    3.235   34.857   27.706    0.255    0.908 
 6956  461.838    3.672    3.235   34.857   27.706    0.255    0.908 
 6958  462.011    3.672    3.235   34.857   27.706    0.255    0.908 
 6960  462.185    3.672    3.235   34.857   27.706    0.255    0.908 
 6961  462.358    3.672    3.235   34.856   27.706    0.255    0.908 
 6964  462.531    3.672    3.235   34.856   27.706    0.278    0.908 
 6966  462.705    3.672    3.235   34.856   27.706    0.301    0.908 
 6968  462.878    3.672    3.235   34.856   27.706    0.301    0.912 
 6970  463.051    3.672    3.235   34.856   27.706    0.301    0.912 
 6972  463.224    3.672    3.235   34.856   27.706    0.301    0.912 
 6974  463.398    3.672    3.235   34.856   27.706    0.301    0.908 
 6975  463.571    3.672    3.235   34.856   27.706    0.301    0.908 
 6978  463.744    3.672    3.235   34.856   27.706    0.301    0.908 
 6980  463.918    3.672    3.235   34.856   27.706    0.301    0.912 
 6981  464.091    3.672    3.235   34.856   27.706    0.301    0.912 
 6983  464.264    3.672    3.236   34.866   27.714    0.301    0.912 
 6984  464.438    3.672    3.236   34.866   27.714    0.301    0.912 
 6985  464.611    3.672    3.236   34.866   27.714    0.301    0.912 
 6986  464.784    3.672    3.236   34.866   27.714    0.301    0.912 
 6988  464.957    3.672    3.236   34.866   27.714    0.301    0.912 
 6989  465.131    3.672    3.236   34.866   27.714    0.301    0.912 
 6990  465.304    3.672    3.236   34.866   27.714    0.301    0.912 
 6991  465.477    3.672    3.236   34.866   27.714    0.301    0.912 
 6993  465.651    3.672    3.236   34.866   27.714    0.301    0.912 
 6994  465.824    3.672    3.236   34.866   27.714    0.301    0.912 
 6995  465.997    3.672    3.236   34.866   27.714    0.301    0.912 
 6997  466.171    3.672    3.236   34.866   27.714    0.301    0.908 
 6998  466.344    3.672    3.236   34.866   27.714    0.278    0.908 
 6999  466.517    3.672    3.236   34.866   27.714    0.301    0.908 
 7001  466.690    3.672    3.236   34.866   27.714    0.301    0.908 
 7002  466.864    3.672    3.236   34.866   27.714    0.301    0.908 
 7003  467.037    3.672    3.236   34.866   27.714    0.301    0.908 
 7005  467.384    3.672    3.236   34.866   27.714    0.301    0.908 
 7008  467.557    3.672    3.236   34.866   27.713    0.301    0.908 
 7009  467.730    3.672    3.236   34.866   27.713    0.301    0.908 
 7012  467.904    3.672    3.236   34.866   27.713    0.301    0.908 
 7014  468.077    3.671    3.236   34.866   27.713    0.301    0.908 
 7017  468.250    3.671    3.236   34.866   27.713    0.278    0.908 
 7019  468.423    3.671    3.236   34.866   27.713    0.278    0.908 
 7023  468.597    3.671    3.236   34.866   27.713    0.278    0.908 
 7028  468.770    3.671    3.236   34.866   27.713    0.278    0.912 
 7031  468.943    3.671    3.236   34.866   27.713    0.278    0.919 
 7033  469.117    3.671    3.236   34.866   27.713    0.255    0.929 
 7035  469.290    3.671    3.236   34.866   27.713    0.255    0.929 
 7036  469.463    3.671    3.236   34.865   27.713    0.255    0.929 
 7039  469.810    3.671    3.236   34.865   27.713    0.278    0.929 
 7041  469.983    3.671    3.236   34.865   27.713    0.278    0.929 
 7042  470.156    3.671    3.236   34.865   27.713    0.255    0.929 
 7044  470.330    3.671    3.236   34.865   27.713    0.255    0.915 
 7045  470.503    3.671    3.236   34.865   27.713    0.255    0.915 
 7046  470.676    3.671    3.236   34.865   27.713    0.278    0.912 
 7047  470.850    3.671    3.236   34.865   27.713    0.278    0.908 
 7048  471.023    3.671    3.236   34.865   27.713    0.278    0.908 
 7049  471.196    3.671    3.236   34.865   27.712    0.255    0.905 
 7051  471.543    3.671    3.236   34.865   27.712    0.278    0.895 
 7052  471.716    3.671    3.236   34.864   27.712    0.278    0.895 
 7054  471.889    3.671    3.236   34.864   27.712    0.278    0.895 
 7055  472.063    3.671    3.236   34.864   27.712    0.278    0.895 
 7057  472.236    3.671    3.236   34.864   27.712    0.278    0.895 
 7058  472.409    3.671    3.236   34.864   27.712    0.278    0.895 
 7059  472.583    3.671    3.236   34.864   27.712    0.301    0.895 
 7061  472.756    3.671    3.236   34.864   27.712    0.301    0.898 
 7062  472.929    3.671    3.236   34.864   27.712    0.278    0.902 
 7063  473.103    3.671    3.236   34.864   27.712    0.301    0.905 
 7066  473.276    3.671    3.236   34.864   27.712    0.301    0.908 
 7067  473.449    3.671    3.236   34.864   27.712    0.278    0.908 
 7069  473.622    3.671    3.236   34.864   27.712    0.278    0.908 
 7072  473.796    3.671    3.236   34.864   27.712    0.278    0.908 
 7076  473.969    3.671    3.236   34.864   27.712    0.255    0.905 
 7077  474.142    3.671    3.236   34.863   27.711    0.255    0.905 
 7082  474.316    3.671    3.236   34.863   27.711    0.255    0.889 
 7085  474.489    3.671    3.236   34.863   27.711    0.255    0.889 
 7087  474.662    3.671    3.236   34.863   27.711    0.255    0.889 
 7089  474.835    3.671    3.236   34.863   27.711    0.255    0.889 
 7091  475.009    3.670    3.236   34.863   27.711    0.278    0.892 
 7094  475.182    3.670    3.236   34.863   27.711    0.278    0.902 
 7096  475.355    3.670    3.236   34.863   27.711    0.301    0.902 
 7097  475.529    3.670    3.236   34.863   27.711    0.301    0.902 
 7099  475.702    3.670    3.236   34.863   27.711    0.278    0.902 
 7100  475.875    3.670    3.236   34.863   27.711    0.278    0.902 
 7101  476.049    3.670    3.236   34.863   27.711    0.301    0.902 
 7102  476.222    3.670    3.236   34.863   27.711    0.301    0.902 
 7104  476.395    3.670    3.236   34.863   27.711    0.301    0.902 
 7105  476.568    3.670    3.236   34.863   27.711    0.324    0.889 
 7106  476.742    3.670    3.236   34.863   27.711    0.324    0.889 
 7107  476.915    3.670    3.236   34.863   27.711    0.324    0.889 
 7109  477.262    3.670    3.236   34.863   27.711    0.324    0.889 
 7110  477.435    3.670    3.236   34.862   27.711    0.324    0.889 
 7111  477.608    3.670    3.236   34.862   27.711    0.324    0.889 
 7112  477.781    3.670    3.236   34.862   27.711    0.324    0.889 
 7114  477.955    3.670    3.236   34.862   27.711    0.278    0.889 
 7115  478.128    3.670    3.236   34.862   27.710    0.278    0.885 
 7116  478.475    3.670    3.236   34.862   27.710    0.278    0.885 
 7118  478.648    3.670    3.236   34.862   27.710    0.278    0.889 
 7120  478.995    3.670    3.236   34.862   27.710    0.324    0.889 
 7122  479.168    3.670    3.236   34.862   27.710    0.278    0.889 
 7123  479.341    3.670    3.236   34.862   27.710    0.278    0.889 
 7125  479.514    3.670    3.236   34.862   27.710    0.278    0.889 
 7127  479.688    3.670    3.236   34.862   27.710    0.278    0.892 
 7131  479.861    3.670    3.236   34.862   27.710    0.278    0.895 
 7133  480.034    3.670    3.236   34.862   27.710    0.278    0.895 
 7141  480.208    3.670    3.236   34.862   27.710    0.301    0.908 
 7146  480.381    3.669    3.236   34.862   27.710    0.278    0.912 
 7150  480.554    3.669    3.236   34.862   27.710    0.255    0.912 
 7152  480.727    3.669    3.236   34.862   27.710    0.231    0.912 
 7154  480.901    3.669    3.236   34.862   27.710    0.231    0.908 
 7156  481.074    3.669    3.236   34.862   27.710    0.278    0.902 
 7157  481.247    3.668    3.236   34.862   27.710    0.278    0.902 
 7158  481.421    3.668    3.236   34.862   27.710    0.278    0.902 
 7160  481.594    3.668    3.236   34.862   27.710    0.278    0.902 
 7161  481.767    3.668    3.236   34.862   27.710    0.231    0.898 
 7162  481.940    3.668    3.236   34.862   27.710    0.231    0.898 
 7163  482.114    3.668    3.236   34.862   27.710    0.278    0.898 
 7165  482.460    3.668    3.236   34.862   27.710    0.231    0.895 
 7166  482.634    3.668    3.236   34.862   27.710    0.278    0.895 
 7168  482.980    3.668    3.236   34.862   27.710    0.278    0.895 
 7169  483.153    3.668    3.236   34.862   27.710    0.301    0.895 
 7171  483.500    3.668    3.236   34.861   27.710    0.301    0.895 
 7172  483.673    3.668    3.236   34.861   27.710    0.301    0.895 
 7174  483.847    3.668    3.236   34.861   27.710    0.324    0.892 
 7175  484.020    3.668    3.236   34.861   27.710    0.324    0.892 
 7176  484.366    3.668    3.236   34.861   27.710    0.324    0.892 
 7177  484.540    3.668    3.236   34.861   27.710    0.324    0.895 
 7179  484.713    3.668    3.236   34.861   27.710    0.301    0.895 
 7180  484.886    3.668    3.236   34.861   27.710    0.301    0.892 
 7181  485.060    3.668    3.236   34.861   27.709    0.301    0.892 
 7183  485.233    3.668    3.236   34.861   27.709    0.324    0.892 
 7184  485.406    3.668    3.236   34.861   27.709    0.301    0.892 
 7186  485.580    3.668    3.236   34.860   27.709    0.324    0.892 
 7187  485.753    3.668    3.236   34.860   27.709    0.301    0.892 
 7188  485.926    3.668    3.236   34.860   27.709    0.301    0.892 
 7191  486.099    3.668    3.236   34.860   27.709    0.278    0.892 
 7194  486.273    3.668    3.236   34.860   27.709    0.231    0.892 
 7195  486.446    3.668    3.236   34.860   27.709    0.231    0.892 
 7198  486.619    3.667    3.236   34.860   27.709    0.255    0.892 
 7201  486.793    3.667    3.236   34.860   27.709    0.255    0.892 
 7204  486.966    3.667    3.236   34.860   27.709    0.255    0.892 
 7207  487.139    3.667    3.236   34.860   27.709    0.301    0.889 
 7210  487.312    3.667    3.236   34.860   27.709    0.301    0.892 
 7213  487.486    3.667    3.236   34.860   27.709    0.301    0.902 
 7214  487.659    3.667    3.236   34.860   27.709    0.301    0.892 
 7216  487.832    3.667    3.236   34.860   27.709    0.301    0.889 
 7218  488.005    3.667    3.236   34.860   27.709    0.301    0.885 
 7219  488.179    3.667    3.236   34.860   27.709    0.278    0.885 
 7221  488.352    3.667    3.236   34.860   27.709    0.255    0.889 
 7222  488.525    3.667    3.236   34.860   27.709    0.255    0.889 
 7224  488.699    3.667    3.236   34.860   27.709    0.255    0.889 
 7225  488.872    3.667    3.236   34.860   27.709    0.255    0.892 
 7227  489.218    3.667    3.236   34.859   27.709    0.255    0.895 
 7229  489.392    3.667    3.236   34.859   27.708    0.255    0.898 
 7230  489.565    3.668    3.236   34.859   27.708    0.255    0.898 
 7232  489.738    3.668    3.236   34.859   27.708    0.255    0.898 
 7233  489.912    3.668    3.236   34.859   27.708    0.255    0.898 
 7234  490.085    3.668    3.236   34.859   27.708    0.255    0.898 
 7236  490.258    3.667    3.236   34.858   27.708    0.255    0.898 
 7238  490.431    3.667    3.236   34.858   27.708    0.255    0.898 
 7240  490.605    3.667    3.236   34.858   27.708    0.255    0.898 
 7242  490.778    3.667    3.236   34.858   27.708    0.278    0.898 
 7246  490.951    3.667    3.236   34.858   27.708    0.301    0.889 
 7248  491.125    3.667    3.236   34.858   27.708    0.301    0.889 
 7250  491.298    3.667    3.236   34.858   27.708    0.301    0.889 
 7254  491.471    3.667    3.236   34.858   27.707    0.278    0.889 
 7256  491.644    3.667    3.236   34.858   27.707    0.278    0.889 
 7258  491.818    3.667    3.236   34.858   27.707    0.278    0.889 
 7260  491.991    3.668    3.236   34.857   27.707    0.278    0.889 
 7262  492.164    3.668    3.236   34.857   27.707    0.301    0.892 
 7263  492.338    3.668    3.236   34.857   27.707    0.278    0.892 
 7264  492.511    3.668    3.236   34.857   27.707    0.278    0.892 
 7266  492.684    3.668    3.236   34.857   27.707    0.278    0.892 
 7267  492.857    3.668    3.236   34.857   27.707    0.278    0.892 
 7269  493.031    3.668    3.236   34.857   27.707    0.255    0.892 
 7270  493.204    3.667    3.236   34.857   27.707    0.255    0.898 
 7272  493.377    3.667    3.236   34.857   27.707    0.255    0.892 
 7273  493.551    3.667    3.236   34.857   27.707    0.255    0.892 
 7275  493.724    3.667    3.236   34.857   27.707    0.255    0.892 
 7276  493.897    3.667    3.236   34.857   27.707    0.255    0.892 
 7278  494.070    3.667    3.236   34.857   27.707    0.278    0.892 
 7279  494.244    3.667    3.236   34.857   27.707    0.255    0.892 
 7282  494.417    3.667    3.236   34.857   27.707    0.255    0.889 
 7285  494.590    3.667    3.236   34.857   27.707    0.255    0.889 
 7287  494.764    3.667    3.236   34.857   27.707    0.278    0.898 
 7289  494.937    3.666    3.236   34.857   27.707    0.278    0.902 
 7291  495.110    3.666    3.236   34.857   27.707    0.278    0.902 
 7293  495.283    3.666    3.236   34.857   27.707    0.278    0.905 
 7294  495.457    3.666    3.236   34.857   27.707    0.278    0.905 
 7296  495.630    3.667    3.237   34.868   27.715    0.278    0.902 
 7298  495.803    3.666    3.237   34.868   27.715    0.278    0.902 
 7299  495.976    3.666    3.237   34.868   27.715    0.278    0.902 
 7301  496.150    3.666    3.237   34.868   27.715    0.278    0.902 
 7302  496.323    3.666    3.237   34.868   27.715    0.278    0.902 
 7303  496.496    3.666    3.237   34.868   27.715    0.278    0.902 
 7304  496.670    3.666    3.237   34.868   27.715    0.278    0.902 
 7305  496.843    3.666    3.237   34.868   27.715    0.278    0.902 
 7307  497.016    3.666    3.237   34.868   27.715    0.278    0.902 
 7308  497.189    3.666    3.237   34.868   27.715    0.278    0.902 
 7309  497.536    3.666    3.237   34.868   27.715    0.278    0.898 
 7311  497.709    3.666    3.237   34.868   27.715    0.278    0.895 
 7312  497.883    3.666    3.237   34.868   27.715    0.278    0.895 
 7313  498.056    3.666    3.237   34.868   27.715    0.278    0.895 
 7314  498.229    3.666    3.237   34.868   27.715    0.278    0.895 
 7315  498.402    3.666    3.237   34.867   27.715    0.278    0.895 
 7317  498.749    3.666    3.237   34.867   27.715    0.278    0.895 
 7318  498.922    3.666    3.237   34.867   27.715    0.278    0.895 
 7320  499.095    3.666    3.237   34.867   27.715    0.278    0.898 
 7321  499.269    3.666    3.237   34.867   27.715    0.278    0.898 
 7323  499.442    3.666    3.237   34.867   27.715    0.255    0.898 
 7325  499.615    3.666    3.237   34.867   27.715    0.255    0.898 
 7327  499.789    3.666    3.237   34.867   27.715    0.255    0.898 
 7329  499.962    3.666    3.237   34.867   27.715    0.255    0.898 
 7332  500.135    3.666    3.237   34.867   27.715    0.255    0.898 
 7337  500.308    3.666    3.237   34.867   27.715    0.255    0.892 
 7339  500.482    3.666    3.237   34.867   27.715    0.255    0.892 
 7343  500.655    3.665    3.237   34.867   27.715    0.278    0.892 
 7344  500.828    3.665    3.237   34.867   27.715    0.278    0.892 
 7347  501.001    3.665    3.237   34.867   27.715    0.278    0.892 
 7348  501.175    3.664    3.237   34.867   27.715    0.278    0.892 
 7351  501.348    3.663    3.237   34.867   27.715    0.255    0.889 
 7352  501.521    3.663    3.237   34.866   27.715    0.255    0.889 
 7354  501.695    3.663    3.237   34.866   27.715    0.255    0.889 
 7356  501.868    3.663    3.236   34.858   27.708    0.255    0.889 
 7359  502.041    3.663    3.236   34.858   27.708    0.255    0.889 
 7360  502.214    3.663    3.236   34.858   27.708    0.255    0.889 
 7362  502.388    3.662    3.236   34.858   27.708    0.255    0.889 
 7364  502.561    3.662    3.236   34.858   27.708    0.255    0.889 
 7367  502.734    3.662    3.236   34.858   27.708    0.255    0.889 
 7368  502.907    3.662    3.236   34.858   27.708    0.255    0.889 
 7371  503.081    3.662    3.236   34.858   27.708    0.255    0.892 
 7374  503.254    3.662    3.236   34.858   27.708    0.255    0.892 
 7378  503.427    3.662    3.236   34.858   27.708    0.278    0.895 
 7385  503.601    3.662    3.236   34.858   27.708    0.255    0.892 
 7396  503.774    3.662    3.236   34.858   27.708    0.278    0.889 
 7399  503.947    3.662    3.237   34.868   27.716    0.278    0.889 
 7401  504.120    3.662    3.237   34.868   27.716    0.278    0.889 
 7403  504.294    3.662    3.237   34.868   27.716    0.278    0.889 
 7404  504.467    3.662    3.237   34.868   27.716    0.278    0.889 
 7406  504.640    3.662    3.237   34.868   27.716    0.278    0.889 
 7407  504.813    3.662    3.237   34.868   27.716    0.278    0.889 
 7408  504.987    3.662    3.237   34.868   27.716    0.278    0.889 
 7410  505.160    3.662    3.237   34.868   27.716    0.278    0.889 
 7411  505.333    3.662    3.237   34.868   27.716    0.278    0.889 
 7412  505.507    3.662    3.237   34.868   27.716    0.278    0.889 
 7413  505.680    3.662    3.237   34.868   27.716    0.278    0.889 
 7414  505.853    3.662    3.237   34.868   27.716    0.278    0.889 
 7416  506.026    3.662    3.237   34.868   27.716    0.278    0.889 
 7417  506.200    3.662    3.237   34.868   27.716    0.278    0.889 
 7419  506.373    3.662    3.237   34.867   27.716    0.278    0.885 
